* Measurement data measured by REW V5.20.9
* Source: Headset (USB-C to 3.5mm Headphone Jack Adapter), MICROPHONE (Master Volume), L, volume: 0.260. Timing signal peak level -42.0 dBFS, measurement signal peak level -35.9 dBFS
* Format: 256k Log Swept Sine, 1 sweep at -12.0 dBFS using an acoustic timing reference
* Dated: 08/07/2024 11:56:09 AM
* REW Settings:
*  C-weighting compensation: Off
*  Target level: 75.0 dB
* Note: ; Delay -0.0427 ms (-15 mm, -0.58 in) using estimated IR delay relative to Acoustic reference on SPEAKER R with no timing offset
* Measurement: 61T 75ohm R
* Smoothing: 1/24 octave
* Frequency Step: 1/48 octave
* Start Frequency: 1.000 Hz
*
* Freq(Hz) SPL(dB) Phase(degrees)
1.000000 46.602 70.2088
1.015000 46.803 68.6428
1.030000 47.001 67.1267
1.044000 47.185 65.7618
1.060000 47.392 64.2673
1.075000 47.582 62.9356
1.090000 47.770 61.6769
1.106000 47.966 60.4202
1.120000 48.137 59.3879
1.138000 48.356 58.1454
1.150000 48.502 57.3663
1.172000 48.767 56.0313
1.180000 48.864 55.5734
1.206000 49.176 54.1755
1.220000 49.343 53.4737
1.241000 49.592 52.4773
1.250000 49.699 52.0682
1.265000 49.875 51.4066
1.280000 50.051 50.7662
1.315000 50.457 49.3276
1.320000 50.514 49.1259
1.340000 50.744 48.3218
1.360000 50.971 47.5135
1.380000 51.195 46.6899
1.400000 51.418 45.8399
1.430000 51.748 44.4909
1.450000 51.964 43.5259
1.475000 52.232 42.2324
1.500000 52.496 40.8843
1.525000 52.757 39.5003
1.550000 53.014 38.0882
1.575000 53.269 36.6557
1.600000 53.520 35.2106
1.625000 53.769 33.7606
1.650000 54.014 32.3134
1.675000 54.256 30.8769
1.700000 54.494 29.4587
1.725000 54.730 28.0666
1.750000 54.962 26.7084
1.775000 55.191 25.3917
1.800000 55.416 24.1243
1.825000 55.638 22.9141
1.850000 55.857 21.7634
1.875000 56.072 20.6615
1.900000 56.283 19.6030
1.925000 56.491 18.5834
1.950000 56.696 17.5980
1.975000 56.897 16.6420
2.000000 57.095 15.7108
2.030000 57.329 14.6195
2.060000 57.558 13.5489
2.090000 57.784 12.4911
2.120000 58.005 11.4378
2.140000 58.151 10.7342
2.180000 58.438 9.3126
2.200000 58.580 8.5899
2.240000 58.857 7.1415
2.270000 59.060 6.0614
2.300000 59.258 4.9879
2.330000 59.453 3.9223
2.360000 59.643 2.8656
2.400000 59.892 1.4728
2.430000 60.075 0.4418
2.470000 60.314 -0.9127
2.500000 60.490 -1.9117
2.540000 60.720 -3.2192
2.580000 60.947 -4.4971
2.620000 61.167 -5.7516
2.650000 61.328 -6.6780
2.690000 61.539 -7.8930
2.720000 61.693 -8.7886
2.760000 61.894 -9.9612
2.800000 62.091 -11.1084
2.850000 62.332 -12.5051
2.900000 62.568 -13.8590
2.950000 62.800 -15.1663
3.000000 63.025 -16.4145
3.040000 63.201 -17.3746
3.070000 63.330 -18.0758
3.110000 63.499 -18.9902
3.150000 63.665 -19.8862
3.200000 63.869 -20.9887
3.250000 64.069 -22.0820
3.300000 64.268 -23.1769
3.350000 64.462 -24.2721
3.400000 64.653 -25.3586
3.450000 64.839 -26.4319
3.500000 65.022 -27.4873
3.550000 65.202 -28.5202
3.600000 65.380 -29.5260
3.650000 65.556 -30.5001
3.700000 65.731 -31.4354
3.750000 65.903 -32.3284
3.820000 66.139 -33.5255
3.870000 66.305 -34.3561
3.950000 66.566 -35.6695
4.000000 66.727 -36.4959
4.060000 66.917 -37.5058
4.120000 67.105 -38.5223
4.180000 67.290 -39.5380
4.250000 67.502 -40.7153
4.310000 67.681 -41.7118
4.370000 67.856 -42.6914
4.440000 68.056 -43.8069
4.500000 68.225 -44.7413
4.550000 68.363 -45.5082
4.620000 68.553 -46.5695
4.680000 68.712 -47.4729
4.750000 68.893 -48.5260
4.820000 69.069 -49.5834
4.870000 69.191 -50.3392
4.940000 69.359 -51.3930
5.000000 69.500 -52.2878
5.080000 69.682 -53.4612
5.150000 69.837 -54.4633
5.220000 69.987 -55.4470
5.300000 70.153 -56.5507
5.380000 70.314 -57.6315
5.450000 70.451 -58.5574
5.520000 70.585 -59.4640
5.600000 70.734 -60.4769
5.700000 70.913 -61.7091
5.800000 71.088 -62.9044
5.900000 71.259 -64.0626
6.000000 71.426 -65.1804
6.080000 71.557 -66.0488
6.150000 71.670 -66.7927
6.220000 71.782 -67.5243
6.300000 71.909 -68.3418
6.400000 72.066 -69.3334
6.500000 72.222 -70.3035
6.600000 72.375 -71.2652
6.700000 72.528 -72.2174
6.800000 72.679 -73.1566
6.900000 72.827 -74.0876
7.000000 72.973 -75.0142
7.100000 73.116 -75.9347
7.200000 73.257 -76.8486
7.300000 73.394 -77.7565
7.400000 73.527 -78.6606
7.500000 73.657 -79.5616
7.620000 73.808 -80.6294
7.750000 73.965 -81.7598
7.880000 74.115 -82.8675
8.000000 74.248 -83.8646
8.120000 74.378 -84.8305
8.250000 74.514 -85.8439
8.380000 74.647 -86.8252
8.500000 74.768 -87.7016
8.620000 74.888 -88.5475
8.750000 75.016 -89.4422
8.850000 75.115 -90.1208
9.000000 75.264 -91.1143
9.120000 75.382 -91.9029
9.250000 75.510 -92.7616
9.380000 75.637 -93.6190
9.500000 75.752 -94.4153
9.620000 75.865 -95.2214
9.750000 75.984 -96.1023
9.880000 76.098 -96.9845
10.000000 76.199 -97.8014
10.150000 76.319 -98.8231
10.300000 76.431 -99.8225
10.440000 76.529 -100.7383
10.600000 76.634 -101.7515
10.750000 76.728 -102.6556
10.900000 76.817 -103.5205
11.060000 76.912 -104.3964
11.200000 76.994 -105.1204
11.380000 77.101 -106.0190
11.500000 77.174 -106.5971
11.720000 77.312 -107.6411
11.800000 77.364 -108.0251
12.060000 77.535 -109.2868
12.200000 77.627 -109.9969
12.410000 77.762 -111.0973
12.500000 77.817 -111.5811
12.650000 77.905 -112.4081
12.800000 77.987 -113.2429
13.150000 78.153 -115.1847
13.200000 78.174 -115.4535
13.400000 78.252 -116.5078
13.600000 78.322 -117.5068
13.800000 78.387 -118.4398
14.000000 78.452 -119.3156
14.300000 78.553 -120.5342
14.500000 78.625 -121.3092
14.750000 78.720 -122.2703
15.000000 78.819 -123.2401
15.250000 78.918 -124.2394
15.500000 79.015 -125.2628
15.750000 79.107 -126.3051
16.000000 79.193 -127.3522
16.250000 79.272 -128.3920
16.500000 79.347 -129.4190
16.750000 79.417 -130.4284
17.000000 79.482 -131.4180
17.250000 79.543 -132.3849
17.500000 79.600 -133.3254
17.750000 79.654 -134.2330
18.000000 79.707 -135.1073
18.250000 79.759 -135.9479
18.500000 79.814 -136.7663
18.750000 79.870 -137.5755
19.000000 79.929 -138.3878
19.250000 79.988 -139.2192
19.500000 80.044 -140.0692
19.750000 80.096 -140.9361
20.000000 80.141 -141.8048
20.299999 80.188 -142.8262
20.600000 80.228 -143.8054
20.900000 80.265 -144.7325
21.200001 80.303 -145.6153
21.400000 80.331 -146.1931
21.799999 80.389 -147.3492
22.000000 80.417 -147.9374
22.400000 80.471 -149.1382
22.700001 80.504 -150.0425
23.000000 80.531 -150.9246
23.299999 80.554 -151.7670
23.600000 80.576 -152.5669
24.000000 80.609 -153.5820
24.299999 80.637 -154.3290
24.700001 80.679 -155.3362
25.000000 80.709 -156.1084
25.400000 80.744 -157.1499
25.799999 80.771 -158.1744
26.200001 80.792 -159.1546
26.500000 80.807 -159.8578
26.900000 80.828 -160.7646
27.200001 80.844 -161.4332
27.600000 80.864 -162.3168
28.000000 80.881 -163.1839
28.500000 80.899 -164.2225
29.000000 80.920 -165.2179
29.500000 80.947 -166.2233
30.000000 80.971 -167.2884
30.400000 80.983 -168.1744
30.700001 80.985 -168.8380
31.100000 80.982 -169.6962
31.500000 80.975 -170.5181
32.000000 80.966 -171.5131
32.500000 80.953 -172.4907
33.000000 80.937 -173.4318
33.500000 80.920 -174.3103
34.000000 80.912 -175.1490
34.500000 80.911 -176.0105
35.000000 80.910 -176.9207
35.500000 80.900 -177.8373
36.000000 80.885 -178.7048
36.500000 80.871 -179.5216
37.000000 80.861 179.6699
37.500000 80.848 178.8529
38.200001 80.820 177.7655
38.700001 80.801 177.0673
39.500000 80.786 175.9796
40.000000 80.780 175.2460
40.599998 80.765 174.3267
41.200001 80.740 173.4305
41.799999 80.712 172.5766
42.500000 80.681 171.6046
43.099998 80.655 170.7742
43.700001 80.627 169.9446
44.400002 80.592 168.9894
45.000000 80.562 168.2043
45.500000 80.540 167.5677
46.200001 80.516 166.6298
46.799999 80.487 165.7297
47.500000 80.421 164.6743
48.200001 80.324 163.8668
48.700001 80.259 163.5201
49.400002 80.211 163.2275
50.000000 80.217 162.9021
50.799999 80.244 162.0886
51.500000 80.237 161.1279
52.200001 80.196 160.2118
53.000000 80.140 159.3379
53.799999 80.091 158.5292
54.500000 80.048 157.8286
55.200001 80.004 157.1598
56.000000 79.956 156.4254
57.000000 79.900 155.5067
58.000000 79.843 154.5526
59.000000 79.774 153.6003
60.000000 79.702 152.7240
60.799999 79.648 152.0524
61.500000 79.604 151.4794
62.200001 79.564 150.9152
63.000000 79.522 150.2454
64.000000 79.461 149.3920
65.000000 79.393 148.6250
66.000000 79.332 147.9157
67.000000 79.272 147.2073
68.000000 79.212 146.4978
69.000000 79.148 145.7930
70.000000 79.085 145.1217
71.000000 79.027 144.4353
72.000000 78.965 143.6974
73.000000 78.894 143.0005
74.000000 78.825 142.3669
75.000000 78.762 141.7367
76.199997 78.686 140.9784
77.500000 78.601 140.1617
78.800003 78.514 139.3783
80.000000 78.435 138.6920
81.199997 78.358 138.0238
82.500000 78.275 137.3105
83.800003 78.195 136.6266
85.000000 78.125 135.9804
86.199997 78.051 135.3424
87.500000 77.973 134.6876
88.500000 77.914 134.1866
90.000000 77.820 133.4570
91.199997 77.744 132.8966
92.500000 77.665 132.2838
93.800003 77.588 131.6325
95.000000 77.515 131.0334
96.199997 77.447 130.4842
97.500000 77.382 129.9340
98.800003 77.325 129.3854
100.000000 77.267 128.8365
101.500000 77.171 128.2025
103.000000 77.074 127.6640
104.400002 76.988 127.1381
106.000000 76.893 126.5078
107.500000 76.808 125.9034
109.000000 76.723 125.3130
110.599998 76.632 124.7297
112.000000 76.554 124.2409
113.800003 76.457 123.6141
115.000000 76.394 123.1955
117.199997 76.282 122.4417
118.000000 76.241 122.1762
120.599998 76.109 121.3634
122.000000 76.039 120.9233
124.099998 75.931 120.2521
125.000000 75.884 119.9770
126.500000 75.807 119.5421
128.000000 75.733 119.1268
131.500000 75.565 118.1237
132.000000 75.540 117.9756
134.000000 75.442 117.3898
136.000000 75.349 116.8197
138.000000 75.257 116.2867
140.000000 75.163 115.7823
143.000000 75.021 115.0342
145.000000 74.939 114.5234
147.500000 74.860 113.9197
150.000000 74.779 113.2468
152.500000 74.645 112.6812
155.000000 74.517 112.2112
157.500000 74.407 111.6546
160.000000 74.304 111.1179
162.500000 74.199 110.6015
165.000000 74.094 110.0486
167.500000 73.994 109.4837
170.000000 73.899 108.9634
172.500000 73.802 108.4844
175.000000 73.706 108.0325
177.500000 73.614 107.5879
180.000000 73.522 107.1415
182.500000 73.429 106.6871
185.000000 73.336 106.2643
187.500000 73.244 105.8742
190.000000 73.148 105.4415
192.500000 73.051 104.9353
195.000000 72.971 104.5067
197.500000 72.916 104.2003
200.000000 72.857 103.8697
203.000000 72.749 103.3969
206.000000 72.636 102.9271
209.000000 72.536 102.4750
212.000000 72.440 102.0347
214.000000 72.379 101.7255
218.000000 72.261 101.1379
220.000000 72.203 100.8729
224.000000 72.088 100.3032
227.000000 72.001 99.8773
230.000000 71.913 99.5016
233.000000 71.828 99.1461
236.000000 71.744 98.8217
240.000000 71.614 98.4424
243.000000 71.528 98.1308
247.000000 71.468 97.5888
250.000000 71.418 97.2034
254.000000 71.301 96.7200
258.000000 71.187 96.2549
262.000000 71.085 95.8320
265.000000 71.010 95.5305
269.000000 70.915 95.1160
272.000000 70.847 94.8153
276.000000 70.761 94.4591
280.000000 70.675 94.1024
285.000000 70.576 93.6082
290.000000 70.465 93.1449
295.000000 70.349 92.7146
300.000000 70.239 92.2830
304.000000 70.172 91.9029
307.000000 70.125 91.6528
311.000000 70.055 91.3655
315.000000 69.982 91.0613
320.000000 69.894 90.6835
325.000000 69.812 90.3223
330.000000 69.728 89.9492
335.000000 69.643 89.6115
340.000000 69.561 89.2804
345.000000 69.476 88.8999
350.000000 69.405 88.5021
355.000000 69.343 88.2675
360.000000 69.275 88.0346
365.000000 69.206 87.7425
370.000000 69.136 87.4446
375.000000 69.067 87.1407
382.000000 68.980 86.7495
387.000000 68.919 86.4841
395.000000 68.829 86.0196
400.000000 68.774 85.7288
406.000000 68.711 85.4111
412.000000 68.650 85.0841
418.000000 68.589 84.7788
425.000000 68.519 84.4487
431.000000 68.461 84.1646
437.000000 68.404 83.8639
444.000000 68.347 83.4430
450.000000 68.304 83.0679
455.000000 68.253 82.8862
462.000000 68.177 82.6620
468.000000 68.120 82.4045
475.000000 68.060 82.0615
482.000000 68.000 81.7343
487.000000 67.957 81.5201
494.000000 67.892 81.2467
500.000000 67.834 81.0540
508.000000 67.761 80.7669
515.000000 67.696 80.5556
522.000000 67.627 80.4131
530.000000 67.556 80.2448
538.000000 67.491 80.1330
545.000000 67.439 80.0860
552.000000 67.389 80.0111
560.000000 67.334 79.8883
570.000000 67.276 79.8405
580.000000 67.223 79.8576
590.000000 67.172 79.8901
600.000000 67.117 79.8884
608.000000 67.084 79.8347
615.000000 67.061 79.8187
622.000000 67.038 79.8502
630.000000 67.010 79.8971
640.000000 66.982 79.9030
650.000000 66.959 79.9091
660.000000 66.934 80.0127
670.000000 66.912 80.1250
680.000000 66.890 80.2047
690.000000 66.877 80.2510
700.000000 66.869 80.3543
710.000000 66.857 80.5712
720.000000 66.851 80.7448
730.000000 66.851 80.9155
740.000000 66.857 81.1310
750.000000 66.863 81.3456
762.000000 66.866 81.5437
775.000000 66.878 81.7835
788.000000 66.896 82.0728
800.000000 66.919 82.3672
812.000000 66.952 82.6241
825.000000 66.985 82.9156
838.000000 67.024 83.2256
850.000000 67.070 83.4915
862.000000 67.117 83.7713
875.000000 67.166 84.1144
885.000000 67.207 84.3809
900.000000 67.276 84.7832
912.000000 67.342 85.0842
925.000000 67.417 85.3736
938.000000 67.495 85.6397
950.000000 67.570 85.9142
962.000000 67.649 86.2170
975.000000 67.740 86.5318
988.000000 67.836 86.8448
1000.000000 67.929 87.1252
1015.000000 68.050 87.3772
1030.000000 68.176 87.5948
1044.000000 68.296 87.7651
1060.000000 68.439 87.9459
1075.000000 68.579 88.0854
1090.000000 68.721 88.1674
1106.000000 68.874 88.2013
1120.000000 69.010 88.1837
1138.000000 69.176 88.1180
1150.000000 69.285 88.0515
1172.000000 69.487 87.8377
1180.000000 69.556 87.7440
1206.000000 69.766 87.4076
1220.000000 69.875 87.2363
1241.000000 70.031 86.9538
1250.000000 70.098 86.8214
1265.000000 70.211 86.5975
1280.000000 70.323 86.3669
1315.000000 70.566 85.8495
1320.000000 70.599 85.7746
1340.000000 70.728 85.4829
1360.000000 70.858 85.2252
1380.000000 70.985 84.9755
1400.000000 71.110 84.7286
1430.000000 71.292 84.3438
1450.000000 71.415 84.0916
1475.000000 71.570 83.7977
1500.000000 71.723 83.5164
1525.000000 71.875 83.2327
1550.000000 72.029 82.9813
1575.000000 72.185 82.7100
1600.000000 72.343 82.4069
1625.000000 72.500 82.1067
1650.000000 72.659 81.8080
1675.000000 72.819 81.5028
1700.000000 72.980 81.1681
1725.000000 73.141 80.8134
1750.000000 73.305 80.4359
1775.000000 73.473 80.0465
1800.000000 73.641 79.6503
1825.000000 73.808 79.2137
1850.000000 73.972 78.7301
1875.000000 74.137 78.2203
1900.000000 74.302 77.6813
1925.000000 74.467 77.0857
1950.000000 74.629 76.4479
1975.000000 74.786 75.7788
2000.000000 74.941 75.0761
2030.000000 75.128 74.1832
2060.000000 75.308 73.2211
2090.000000 75.480 72.2012
2120.000000 75.644 71.1366
2140.000000 75.747 70.4023
2180.000000 75.944 68.8596
2200.000000 76.036 68.0510
2240.000000 76.205 66.3813
2270.000000 76.318 65.0885
2300.000000 76.416 63.7785
2330.000000 76.499 62.4558
2360.000000 76.568 61.1181
2400.000000 76.640 59.3283
2430.000000 76.678 57.9969
2470.000000 76.707 56.2486
2500.000000 76.715 54.9799
2540.000000 76.707 53.3462
2580.000000 76.678 51.7875
2620.000000 76.632 50.3229
2650.000000 76.587 49.2888
2690.000000 76.517 48.0066
2720.000000 76.457 47.1127
2760.000000 76.369 46.0044
2800.000000 76.274 44.9995
2850.000000 76.151 43.9113
2900.000000 76.025 42.9816
2950.000000 75.897 42.1978
3000.000000 75.772 41.5509
3040.000000 75.677 41.1243
3070.000000 75.607 40.8545
3110.000000 75.518 40.5516
3150.000000 75.435 40.3030
3200.000000 75.339 40.0670
3250.000000 75.253 39.9049
3300.000000 75.178 39.8029
3350.000000 75.113 39.7262
3400.000000 75.057 39.6801
3450.000000 75.012 39.6646
3500.000000 74.977 39.6488
3550.000000 74.948 39.6020
3600.000000 74.925 39.5282
3650.000000 74.909 39.4205
3700.000000 74.897 39.2646
3750.000000 74.886 39.0548
3820.000000 74.866 38.6670
3870.000000 74.844 38.3058
3950.000000 74.786 37.6190
4000.000000 74.728 37.1693
4060.000000 74.630 36.6511
4120.000000 74.503 36.2699
4180.000000 74.354 36.1492
4250.000000 74.183 36.4188
4310.000000 74.074 36.9307
4370.000000 74.018 37.5104
4440.000000 74.010 38.0000
4500.000000 74.024 38.0947
4550.000000 74.030 37.9346
4620.000000 74.003 37.4595
4680.000000 73.938 36.9614
4750.000000 73.813 36.4312
4820.000000 73.642 36.0808
4870.000000 73.501 35.9982
4940.000000 73.289 36.1704
5000.000000 73.104 36.5910
5080.000000 72.879 37.5048
5150.000000 72.715 38.5533
5220.000000 72.592 39.7412
5300.000000 72.502 41.1652
5380.000000 72.461 42.5011
5450.000000 72.453 43.5161
5520.000000 72.457 44.3683
5600.000000 72.462 45.1414
5700.000000 72.449 45.9116
5800.000000 72.403 46.6187
5900.000000 72.328 47.3898
6000.000000 72.237 48.3447
6080.000000 72.167 49.2655
6150.000000 72.115 50.1934
6220.000000 72.074 51.2198
6300.000000 72.049 52.4727
6400.000000 72.053 54.1139
6500.000000 72.103 55.8062
6600.000000 72.205 57.4684
6700.000000 72.355 59.0019
6800.000000 72.551 60.3598
6900.000000 72.792 61.4687
7000.000000 73.074 62.2309
7100.000000 73.395 62.5253
7200.000000 73.733 62.2451
7300.000000 74.057 61.2957
7400.000000 74.326 59.7123
7500.000000 74.521 57.7423
7620.000000 74.676 55.0766
7750.000000 74.734 51.6368
7880.000000 74.618 47.8685
8000.000000 74.345 44.6424
8120.000000 73.947 42.0245
8250.000000 73.431 40.0274
8380.000000 72.879 38.9333
8500.000000 72.379 38.6445
8620.000000 71.913 38.8962
8750.000000 71.464 39.6076
8850.000000 71.165 40.3588
9000.000000 70.796 41.6727
9120.000000 70.582 42.7445
9250.000000 70.426 43.5421
9380.000000 70.298 43.7902
9500.000000 70.171 43.5872
9620.000000 70.024 42.9885
9750.000000 69.812 41.8412
9880.000000 69.494 40.3141
10000.000000 69.081 38.9153
10150.000000 68.404 37.7253
10300.000000 67.597 37.6298
10440.000000 66.789 38.7925
10600.000000 65.892 41.6365
10750.000000 65.164 45.5746
10900.000000 64.606 50.3301
11060.000000 64.229 55.8927
11200.000000 64.092 60.8671
11380.000000 64.169 66.7536
11500.000000 64.367 70.1514
11720.000000 64.946 74.8994
11800.000000 65.202 76.0803
12060.000000 66.138 77.6479
12200.000000 66.654 76.9922
12410.000000 67.349 74.1920
12500.000000 67.604 72.3798
12650.000000 67.954 68.6361
12800.000000 68.191 64.1329
13150.000000 68.258 51.6383
13200.000000 68.207 49.7025
13400.000000 67.848 41.8016
13600.000000 67.233 34.0493
13800.000000 66.386 26.8994
14000.000000 65.349 20.6996
14300.000000 63.569 13.8557
14500.000000 62.316 10.8803
14750.000000 60.792 8.8129
15000.000000 59.404 8.2103
15250.000000 58.209 8.6523
15500.000000 57.272 9.6006
15750.000000 56.654 10.3783
16000.000000 56.392 9.7800
16250.000000 56.325 6.1724
16500.000000 56.048 -0.2061
16750.000000 55.405 -6.1954
17000.000000 54.811 -10.1302
17250.000000 54.730 -13.8989
17500.000000 55.145 -20.2890
17750.000000 55.781 -30.9357
18000.000000 56.377 -46.4592
18250.000000 56.688 -66.8979
18500.000000 56.484 -91.4185
18750.000000 55.648 -118.3092
19000.000000 54.151 -145.6221
19250.000000 52.003 -171.1087
19500.000000 49.413 167.0531
19750.000000 46.914 149.5305
