* Measurement data measured by REW V5.20.9
* Source: Frequency Response Averaged data
* Format: Averaged data produced from the rms magnitudes of Final A4000 - R, Final A4000 - R Jul 12, Final A4000 - R Jul 12
* Dated: 12/07/2022 8:10:58 PM
* REW Settings:
*  C-weighting compensation: Off
*  Target level: 75.0 dB
* Note: ; Averaged data produced from the rms magnitudes of Final A4000 - R, Final A4000 - R Jul 12, Final A4000 - R Jul 12
* Measurement: Final A4000 - R
* Smoothing: 1/24 octave
* Frequency Step: 1/48 octave
* Start Frequency: 2.200 Hz
*
* Freq(Hz) SPL(dB)
2.200000 73.894
2.240000 74.109
2.270000 74.269
2.300000 74.430
2.330000 74.591
2.360000 74.751
2.400000 74.966
2.430000 75.126
2.470000 75.341
2.500000 75.501
2.540000 75.716
2.580000 75.936
2.620000 76.175
2.650000 76.361
2.690000 76.614
2.720000 76.805
2.760000 77.059
2.800000 77.309
2.850000 77.607
2.900000 77.884
2.950000 78.131
3.000000 78.352
3.040000 78.514
3.070000 78.628
3.110000 78.773
3.150000 78.912
3.200000 79.081
3.250000 79.250
3.300000 79.423
3.350000 79.599
3.400000 79.771
3.450000 79.940
3.500000 80.107
3.550000 80.270
3.600000 80.430
3.650000 80.587
3.700000 80.740
3.750000 80.889
3.820000 81.091
3.870000 81.232
3.950000 81.454
4.000000 81.592
4.060000 81.756
4.120000 81.919
4.180000 82.079
4.250000 82.263
4.310000 82.419
4.370000 82.573
4.440000 82.751
4.500000 82.903
4.550000 83.028
4.620000 83.200
4.680000 83.345
4.750000 83.510
4.820000 83.672
4.870000 83.785
4.940000 83.941
5.000000 84.071
5.080000 84.241
5.150000 84.385
5.220000 84.526
5.300000 84.682
5.380000 84.833
5.450000 84.963
5.520000 85.088
5.600000 85.227
5.700000 85.395
5.800000 85.557
5.900000 85.715
6.000000 85.869
6.080000 85.989
6.150000 86.092
6.220000 86.194
6.300000 86.310
6.400000 86.451
6.500000 86.591
6.600000 86.728
6.700000 86.865
6.800000 86.999
6.900000 87.130
7.000000 87.260
7.100000 87.386
7.200000 87.511
7.300000 87.632
7.400000 87.749
7.500000 87.864
7.620000 87.997
7.750000 88.137
7.880000 88.271
8.000000 88.391
8.120000 88.509
8.250000 88.633
8.380000 88.755
8.500000 88.868
8.620000 88.979
8.750000 89.099
8.850000 89.191
9.000000 89.330
9.120000 89.439
9.250000 89.556
9.380000 89.671
9.500000 89.775
9.620000 89.875
9.750000 89.979
9.880000 90.079
10.000000 90.166
10.150000 90.269
10.300000 90.365
10.440000 90.448
10.600000 90.537
10.750000 90.616
10.900000 90.690
11.060000 90.768
11.200000 90.833
11.380000 90.917
11.500000 90.973
11.720000 91.076
11.800000 91.114
12.060000 91.237
12.200000 91.303
12.410000 91.400
12.500000 91.441
12.650000 91.509
12.800000 91.574
13.150000 91.716
13.200000 91.735
13.400000 91.808
13.600000 91.876
13.800000 91.939
14.000000 91.998
14.300000 92.083
14.500000 92.138
14.750000 92.208
15.000000 92.278
15.250000 92.348
15.500000 92.416
15.750000 92.480
16.000000 92.537
16.250000 92.587
16.500000 92.629
16.750000 92.668
17.000000 92.706
17.250000 92.747
17.500000 92.793
17.750000 92.846
18.000000 92.902
18.250000 92.959
18.500000 93.013
18.750000 93.061
19.000000 93.102
19.250000 93.135
19.500000 93.164
19.750000 93.189
20.000000 93.214
20.299999 93.244
20.600000 93.275
20.900000 93.306
21.200001 93.336
21.400000 93.355
21.799999 93.390
22.000000 93.406
22.400000 93.436
22.700001 93.459
23.000000 93.480
23.299999 93.501
23.600000 93.521
24.000000 93.543
24.299999 93.557
24.700001 93.571
25.000000 93.578
25.400000 93.587
25.799999 93.598
26.200001 93.612
26.500000 93.624
26.900000 93.639
27.200001 93.647
27.600000 93.657
28.000000 93.666
28.500000 93.681
29.000000 93.695
29.500000 93.698
30.000000 93.689
30.400000 93.681
30.700001 93.678
31.100000 93.678
31.500000 93.681
32.000000 93.682
32.500000 93.676
33.000000 93.668
33.500000 93.662
34.000000 93.656
34.500000 93.647
35.000000 93.634
35.500000 93.617
36.000000 93.600
36.500000 93.586
37.000000 93.579
37.500000 93.575
38.200001 93.554
38.700001 93.519
39.500000 93.458
40.000000 93.440
40.599998 93.436
41.200001 93.426
41.799999 93.399
42.500000 93.362
43.099998 93.338
43.700001 93.318
44.400002 93.289
45.000000 93.260
45.500000 93.237
46.200001 93.213
46.799999 93.199
47.500000 93.175
48.200001 93.139
48.700001 93.121
49.400002 93.124
50.000000 93.126
50.799999 93.074
51.500000 92.997
52.200001 92.941
53.000000 92.891
53.799999 92.827
54.500000 92.772
55.200001 92.727
56.000000 92.681
57.000000 92.632
58.000000 92.580
59.000000 92.535
60.000000 92.492
60.799999 92.442
61.500000 92.403
62.200001 92.378
63.000000 92.349
64.000000 92.288
65.000000 92.224
66.000000 92.173
67.000000 92.118
68.000000 92.061
69.000000 92.011
70.000000 91.961
71.000000 91.908
72.000000 91.856
73.000000 91.802
74.000000 91.746
75.000000 91.691
76.199997 91.626
77.500000 91.565
78.800003 91.497
80.000000 91.427
81.199997 91.365
82.500000 91.303
83.800003 91.243
85.000000 91.188
86.199997 91.129
87.500000 91.059
88.500000 91.000
90.000000 90.915
91.199997 90.851
92.500000 90.788
93.800003 90.729
95.000000 90.674
96.199997 90.616
97.500000 90.551
98.800003 90.484
100.000000 90.419
101.500000 90.352
103.000000 90.295
104.400002 90.239
106.000000 90.170
107.500000 90.097
109.000000 90.022
110.599998 89.944
112.000000 89.887
113.800003 89.821
115.000000 89.774
117.199997 89.691
118.000000 89.665
120.599998 89.550
122.000000 89.480
124.099998 89.399
125.000000 89.363
126.500000 89.297
128.000000 89.230
131.500000 89.093
132.000000 89.073
134.000000 88.997
136.000000 88.922
138.000000 88.846
140.000000 88.768
143.000000 88.649
145.000000 88.560
147.500000 88.446
150.000000 88.318
152.500000 88.201
155.000000 88.096
157.500000 87.986
160.000000 87.893
162.500000 87.833
165.000000 87.825
167.500000 87.870
170.000000 87.945
172.500000 88.031
175.000000 88.100
177.500000 88.126
180.000000 88.115
182.500000 88.084
185.000000 88.040
187.500000 87.983
190.000000 87.912
192.500000 87.841
195.000000 87.774
197.500000 87.709
200.000000 87.640
203.000000 87.555
206.000000 87.484
209.000000 87.419
212.000000 87.352
214.000000 87.308
218.000000 87.218
220.000000 87.174
224.000000 87.086
227.000000 87.020
230.000000 86.953
233.000000 86.887
236.000000 86.831
240.000000 86.759
243.000000 86.705
247.000000 86.647
250.000000 86.603
254.000000 86.520
258.000000 86.437
262.000000 86.364
265.000000 86.310
269.000000 86.241
272.000000 86.189
276.000000 86.119
280.000000 86.050
285.000000 85.965
290.000000 85.894
295.000000 85.852
300.000000 85.861
304.000000 85.901
307.000000 85.937
311.000000 85.975
315.000000 85.988
320.000000 85.972
325.000000 85.929
330.000000 85.872
335.000000 85.811
340.000000 85.750
345.000000 85.691
350.000000 85.634
355.000000 85.575
360.000000 85.517
365.000000 85.464
370.000000 85.416
375.000000 85.369
382.000000 85.306
387.000000 85.262
395.000000 85.191
400.000000 85.148
406.000000 85.098
412.000000 85.051
418.000000 85.005
425.000000 84.954
431.000000 84.913
437.000000 84.871
444.000000 84.821
450.000000 84.780
455.000000 84.748
462.000000 84.705
468.000000 84.668
475.000000 84.624
482.000000 84.582
487.000000 84.554
494.000000 84.516
500.000000 84.484
508.000000 84.443
515.000000 84.408
522.000000 84.374
530.000000 84.336
538.000000 84.299
545.000000 84.267
552.000000 84.237
560.000000 84.206
570.000000 84.168
580.000000 84.133
590.000000 84.098
600.000000 84.064
608.000000 84.040
615.000000 84.020
622.000000 83.999
630.000000 83.977
640.000000 83.958
650.000000 83.939
660.000000 83.916
670.000000 83.896
680.000000 83.879
690.000000 83.866
700.000000 83.856
710.000000 83.849
720.000000 83.845
730.000000 83.843
740.000000 83.847
750.000000 83.855
762.000000 83.859
775.000000 83.872
788.000000 83.894
800.000000 83.917
812.000000 83.946
825.000000 83.982
838.000000 84.024
850.000000 84.067
862.000000 84.117
875.000000 84.175
885.000000 84.222
900.000000 84.299
912.000000 84.365
925.000000 84.442
938.000000 84.526
950.000000 84.606
962.000000 84.684
975.000000 84.770
988.000000 84.859
1000.000000 84.944
1015.000000 85.054
1030.000000 85.163
1044.000000 85.267
1060.000000 85.386
1075.000000 85.497
1090.000000 85.608
1106.000000 85.727
1120.000000 85.832
1138.000000 85.967
1150.000000 86.057
1172.000000 86.224
1180.000000 86.284
1206.000000 86.429
1220.000000 86.434
1241.000000 86.369
1250.000000 86.362
1265.000000 86.410
1280.000000 86.510
1315.000000 86.772
1320.000000 86.807
1340.000000 86.943
1360.000000 87.072
1380.000000 87.194
1400.000000 87.305
1430.000000 87.440
1450.000000 87.494
1475.000000 87.487
1500.000000 87.356
1525.000000 87.067
1550.000000 86.624
1575.000000 86.093
1600.000000 85.591
1625.000000 85.220
1650.000000 85.029
1675.000000 84.998
1700.000000 85.076
1725.000000 85.220
1750.000000 85.396
1775.000000 85.584
1800.000000 85.776
1825.000000 85.966
1850.000000 86.149
1875.000000 86.326
1900.000000 86.498
1925.000000 86.665
1950.000000 86.829
1975.000000 86.990
2000.000000 87.147
2030.000000 87.331
2060.000000 87.512
2090.000000 87.691
2120.000000 87.868
2140.000000 87.986
2180.000000 88.218
2200.000000 88.333
2240.000000 88.560
2270.000000 88.728
2300.000000 88.894
2330.000000 89.059
2360.000000 89.222
2400.000000 89.441
2430.000000 89.608
2470.000000 89.840
2500.000000 90.027
2540.000000 90.303
2580.000000 90.623
2620.000000 91.004
2650.000000 91.332
2690.000000 91.807
2720.000000 92.168
2760.000000 92.621
2800.000000 93.026
2850.000000 93.468
2900.000000 93.860
2950.000000 94.225
3000.000000 94.567
3040.000000 94.819
3070.000000 94.995
3110.000000 95.212
3150.000000 95.410
3200.000000 95.636
3250.000000 95.841
3300.000000 96.027
3350.000000 96.191
3400.000000 96.329
3450.000000 96.436
3500.000000 96.509
3550.000000 96.549
3600.000000 96.559
3650.000000 96.543
3700.000000 96.504
3750.000000 96.444
3820.000000 96.325
3870.000000 96.215
3950.000000 96.008
4000.000000 95.869
4060.000000 95.703
4120.000000 95.547
4180.000000 95.406
4250.000000 95.265
4310.000000 95.163
4370.000000 95.074
4440.000000 94.984
4500.000000 94.915
4550.000000 94.860
4620.000000 94.788
4680.000000 94.732
4750.000000 94.681
4820.000000 94.654
4870.000000 94.651
4940.000000 94.670
5000.000000 94.704
5080.000000 94.771
5150.000000 94.845
5220.000000 94.930
5300.000000 95.038
5380.000000 95.155
5450.000000 95.262
5520.000000 95.371
5600.000000 95.496
5700.000000 95.645
5800.000000 95.783
5900.000000 95.906
6000.000000 96.012
6080.000000 96.084
6150.000000 96.137
6220.000000 96.180
6300.000000 96.214
6400.000000 96.233
6500.000000 96.227
6600.000000 96.196
6700.000000 96.145
6800.000000 96.078
6900.000000 96.003
7000.000000 95.931
7100.000000 95.871
7200.000000 95.833
7300.000000 95.821
7400.000000 95.837
7500.000000 95.888
7620.000000 95.997
7750.000000 96.177
7880.000000 96.407
8000.000000 96.647
8120.000000 96.882
8250.000000 97.081
8380.000000 97.158
8500.000000 97.062
8620.000000 96.760
8750.000000 96.180
8850.000000 95.567
9000.000000 94.441
9120.000000 93.431
9250.000000 92.300
9380.000000 91.182
9500.000000 90.189
9620.000000 89.248
9750.000000 88.293
9880.000000 87.409
10000.000000 86.655
10150.000000 85.792
10300.000000 85.014
10440.000000 84.360
10600.000000 83.695
10750.000000 83.147
10900.000000 82.669
11060.000000 82.233
11200.000000 81.915
11380.000000 81.589
11500.000000 81.423
11720.000000 81.227
11800.000000 81.190
12060.000000 81.194
12200.000000 81.277
12410.000000 81.512
12500.000000 81.654
12650.000000 81.947
12800.000000 82.312
13150.000000 83.434
13200.000000 83.620
13400.000000 84.397
13600.000000 85.153
13800.000000 85.752
14000.000000 86.048
14300.000000 85.752
14500.000000 85.116
14750.000000 84.038
15000.000000 82.917
15250.000000 81.968
15500.000000 81.312
15750.000000 80.999
16000.000000 81.064
16250.000000 81.528
16500.000000 82.301
16750.000000 83.039
17000.000000 83.180
17250.000000 82.266
17500.000000 80.281
17750.000000 77.659
18000.000000 74.959
18250.000000 72.529
18500.000000 70.465
18750.000000 68.738
19000.000000 67.264
19250.000000 65.932
19500.000000 64.637
19750.000000 63.354
