* Measurement data measured by REW V5.20.9
* Source: Frequency Response Averaged data
* Format: Averaged data produced from the rms magnitudes of Final A4000 - L Jul 12, Final A4000 - L Jul 12, Final A4000 - L Jul 12
* Dated: 12/07/2022 8:14:39 PM
* REW Settings:
*  C-weighting compensation: Off
*  Target level: 75.0 dB
* Note: ; Averaged data produced from the rms magnitudes of Final A4000 - L Jul 12, Final A4000 - L Jul 12, Final A4000 - L Jul 12
* Measurement: Final A4000 - L
* Smoothing: 1/24 octave
* Frequency Step: 1/48 octave
* Start Frequency: 2.200 Hz
*
* Freq(Hz) SPL(dB)
2.200000 73.308
2.240000 73.534
2.270000 73.704
2.300000 73.874
2.330000 74.043
2.360000 74.213
2.400000 74.439
2.430000 74.609
2.470000 74.835
2.500000 75.005
2.540000 75.231
2.580000 75.464
2.620000 75.716
2.650000 75.912
2.690000 76.178
2.720000 76.380
2.760000 76.648
2.800000 76.911
2.850000 77.228
2.900000 77.522
2.950000 77.788
3.000000 78.027
3.040000 78.203
3.070000 78.329
3.110000 78.489
3.150000 78.643
3.200000 78.831
3.250000 79.019
3.300000 79.212
3.350000 79.406
3.400000 79.598
3.450000 79.787
3.500000 79.973
3.550000 80.155
3.600000 80.334
3.650000 80.509
3.700000 80.680
3.750000 80.847
3.820000 81.074
3.870000 81.232
3.950000 81.479
4.000000 81.632
4.060000 81.812
4.120000 81.989
4.180000 82.163
4.250000 82.361
4.310000 82.528
4.370000 82.691
4.440000 82.878
4.500000 83.035
4.550000 83.163
4.620000 83.339
4.680000 83.485
4.750000 83.651
4.820000 83.812
4.870000 83.923
4.940000 84.075
5.000000 84.201
5.080000 84.364
5.150000 84.502
5.220000 84.635
5.300000 84.782
5.380000 84.923
5.450000 85.043
5.520000 85.160
5.600000 85.288
5.700000 85.442
5.800000 85.591
5.900000 85.737
6.000000 85.878
6.080000 85.988
6.150000 86.084
6.220000 86.178
6.300000 86.285
6.400000 86.417
6.500000 86.546
6.600000 86.675
6.700000 86.802
6.800000 86.928
6.900000 87.051
7.000000 87.172
7.100000 87.291
7.200000 87.408
7.300000 87.522
7.400000 87.632
7.500000 87.739
7.620000 87.864
7.750000 87.994
7.880000 88.120
8.000000 88.233
8.120000 88.345
8.250000 88.463
8.380000 88.581
8.500000 88.692
8.620000 88.803
8.750000 88.925
8.850000 89.021
9.000000 89.168
9.120000 89.287
9.250000 89.415
9.380000 89.545
9.500000 89.662
9.620000 89.774
9.750000 89.893
9.880000 90.004
10.000000 90.098
10.150000 90.206
10.300000 90.299
10.440000 90.372
10.600000 90.443
10.750000 90.496
10.900000 90.539
11.060000 90.581
11.200000 90.612
11.380000 90.657
11.500000 90.691
11.720000 90.768
11.800000 90.803
12.060000 90.939
12.200000 91.025
12.410000 91.169
12.500000 91.231
12.650000 91.338
12.800000 91.442
13.150000 91.654
13.200000 91.679
13.400000 91.768
13.600000 91.841
13.800000 91.895
14.000000 91.943
14.300000 92.011
14.500000 92.063
14.750000 92.137
15.000000 92.223
15.250000 92.308
15.500000 92.384
15.750000 92.442
16.000000 92.479
16.250000 92.502
16.500000 92.520
16.750000 92.544
17.000000 92.587
17.250000 92.649
17.500000 92.727
17.750000 92.806
18.000000 92.875
18.250000 92.925
18.500000 92.949
18.750000 92.954
19.000000 92.944
19.250000 92.938
19.500000 92.944
19.750000 92.969
20.000000 93.015
20.299999 93.087
20.600000 93.166
20.900000 93.239
21.200001 93.299
21.400000 93.333
21.799999 93.392
22.000000 93.418
22.400000 93.463
22.700001 93.487
23.000000 93.500
23.299999 93.503
23.600000 93.503
24.000000 93.510
24.299999 93.525
24.700001 93.551
25.000000 93.565
25.400000 93.564
25.799999 93.548
26.200001 93.536
26.500000 93.543
26.900000 93.573
27.200001 93.600
27.600000 93.621
28.000000 93.610
28.500000 93.560
29.000000 93.507
29.500000 93.476
30.000000 93.458
30.400000 93.443
30.700001 93.434
31.100000 93.432
31.500000 93.444
32.000000 93.468
32.500000 93.485
33.000000 93.486
33.500000 93.485
34.000000 93.488
34.500000 93.485
35.000000 93.470
35.500000 93.450
36.000000 93.436
36.500000 93.425
37.000000 93.407
37.500000 93.378
38.200001 93.347
38.700001 93.340
39.500000 93.321
40.000000 93.288
40.599998 93.240
41.200001 93.208
41.799999 93.192
42.500000 93.169
43.099998 93.140
43.700001 93.116
44.400002 93.089
45.000000 93.043
45.500000 92.985
46.200001 92.910
46.799999 92.882
47.500000 92.874
48.200001 92.837
48.700001 92.776
49.400002 92.659
50.000000 92.572
50.799999 92.527
51.500000 92.543
52.200001 92.550
53.000000 92.514
53.799999 92.450
54.500000 92.395
55.200001 92.351
56.000000 92.313
57.000000 92.250
58.000000 92.164
59.000000 92.105
60.000000 92.063
60.799999 92.031
61.500000 92.007
62.200001 91.980
63.000000 91.935
64.000000 91.865
65.000000 91.794
66.000000 91.723
67.000000 91.653
68.000000 91.591
69.000000 91.532
70.000000 91.470
71.000000 91.407
72.000000 91.345
73.000000 91.282
74.000000 91.224
75.000000 91.171
76.199997 91.097
77.500000 91.009
78.800003 90.934
80.000000 90.860
81.199997 90.794
82.500000 90.732
83.800003 90.656
85.000000 90.577
86.199997 90.501
87.500000 90.414
88.500000 90.352
90.000000 90.280
91.199997 90.221
92.500000 90.146
93.800003 90.068
95.000000 89.995
96.199997 89.932
97.500000 89.877
98.800003 89.818
100.000000 89.740
101.500000 89.647
103.000000 89.578
104.400002 89.476
106.000000 89.360
107.500000 89.284
109.000000 89.207
110.599998 89.123
112.000000 89.028
113.800003 88.951
115.000000 88.978
117.199997 88.946
118.000000 88.897
120.599998 88.728
122.000000 88.629
124.099998 88.519
125.000000 88.490
126.500000 88.442
128.000000 88.369
131.500000 88.017
132.000000 87.964
134.000000 87.868
136.000000 87.861
138.000000 87.811
140.000000 87.713
143.000000 87.511
145.000000 87.378
147.500000 87.257
150.000000 87.208
152.500000 87.250
155.000000 87.393
157.500000 87.527
160.000000 87.588
162.500000 87.561
165.000000 87.470
167.500000 87.373
170.000000 87.310
172.500000 87.290
175.000000 87.278
177.500000 87.262
180.000000 87.236
182.500000 87.189
185.000000 87.115
187.500000 87.033
190.000000 86.957
192.500000 86.879
195.000000 86.803
197.500000 86.741
200.000000 86.672
203.000000 86.580
206.000000 86.491
209.000000 86.406
212.000000 86.325
214.000000 86.276
218.000000 86.182
220.000000 86.134
224.000000 86.042
227.000000 85.977
230.000000 85.910
233.000000 85.841
236.000000 85.771
240.000000 85.684
243.000000 85.621
247.000000 85.533
250.000000 85.469
254.000000 85.391
258.000000 85.310
262.000000 85.231
265.000000 85.171
269.000000 85.083
272.000000 85.015
276.000000 84.931
280.000000 84.851
285.000000 84.771
290.000000 84.739
295.000000 84.773
300.000000 84.843
304.000000 84.889
307.000000 84.904
311.000000 84.896
315.000000 84.866
320.000000 84.809
325.000000 84.743
330.000000 84.677
335.000000 84.611
340.000000 84.545
345.000000 84.482
350.000000 84.423
355.000000 84.364
360.000000 84.306
365.000000 84.250
370.000000 84.199
375.000000 84.149
382.000000 84.081
387.000000 84.033
395.000000 83.959
400.000000 83.915
406.000000 83.864
412.000000 83.816
418.000000 83.768
425.000000 83.712
431.000000 83.667
437.000000 83.623
444.000000 83.569
450.000000 83.524
455.000000 83.493
462.000000 83.452
468.000000 83.414
475.000000 83.369
482.000000 83.328
487.000000 83.299
494.000000 83.261
500.000000 83.228
508.000000 83.184
515.000000 83.149
522.000000 83.114
530.000000 83.074
538.000000 83.034
545.000000 82.997
552.000000 82.964
560.000000 82.936
570.000000 82.901
580.000000 82.865
590.000000 82.829
600.000000 82.797
608.000000 82.773
615.000000 82.753
622.000000 82.735
630.000000 82.714
640.000000 82.689
650.000000 82.668
660.000000 82.645
670.000000 82.627
680.000000 82.613
690.000000 82.602
700.000000 82.595
710.000000 82.589
720.000000 82.585
730.000000 82.584
740.000000 82.585
750.000000 82.587
762.000000 82.598
775.000000 82.616
788.000000 82.639
800.000000 82.662
812.000000 82.689
825.000000 82.727
838.000000 82.771
850.000000 82.816
862.000000 82.862
875.000000 82.919
885.000000 82.968
900.000000 83.047
912.000000 83.113
925.000000 83.190
938.000000 83.272
950.000000 83.353
962.000000 83.433
975.000000 83.523
988.000000 83.618
1000.000000 83.708
1015.000000 83.825
1030.000000 83.947
1044.000000 84.067
1060.000000 84.199
1075.000000 84.312
1090.000000 84.405
1106.000000 84.465
1120.000000 84.486
1138.000000 84.503
1150.000000 84.524
1172.000000 84.597
1180.000000 84.632
1206.000000 84.757
1220.000000 84.828
1241.000000 84.936
1250.000000 84.983
1265.000000 85.061
1280.000000 85.138
1315.000000 85.307
1320.000000 85.330
1340.000000 85.417
1360.000000 85.500
1380.000000 85.579
1400.000000 85.650
1430.000000 85.738
1450.000000 85.783
1475.000000 85.823
1500.000000 85.846
1525.000000 85.862
1550.000000 85.880
1575.000000 85.908
1600.000000 85.946
1625.000000 85.997
1650.000000 86.059
1675.000000 86.129
1700.000000 86.205
1725.000000 86.286
1750.000000 86.371
1775.000000 86.462
1800.000000 86.557
1825.000000 86.654
1850.000000 86.753
1875.000000 86.855
1900.000000 86.960
1925.000000 87.067
1950.000000 87.176
1975.000000 87.285
2000.000000 87.396
2030.000000 87.533
2060.000000 87.670
2090.000000 87.809
2120.000000 87.948
2140.000000 88.041
2180.000000 88.229
2200.000000 88.324
2240.000000 88.516
2270.000000 88.663
2300.000000 88.815
2330.000000 88.970
2360.000000 89.127
2400.000000 89.334
2430.000000 89.490
2470.000000 89.713
2500.000000 89.910
2540.000000 90.244
2580.000000 90.669
2620.000000 91.149
2650.000000 91.508
2690.000000 91.951
2720.000000 92.250
2760.000000 92.614
2800.000000 92.956
2850.000000 93.362
2900.000000 93.739
2950.000000 94.075
3000.000000 94.368
3040.000000 94.574
3070.000000 94.716
3110.000000 94.889
3150.000000 95.049
3200.000000 95.233
3250.000000 95.400
3300.000000 95.549
3350.000000 95.672
3400.000000 95.766
3450.000000 95.829
3500.000000 95.864
3550.000000 95.877
3600.000000 95.867
3650.000000 95.832
3700.000000 95.770
3750.000000 95.681
3820.000000 95.513
3870.000000 95.372
3950.000000 95.142
4000.000000 95.010
4060.000000 94.871
4120.000000 94.751
4180.000000 94.644
4250.000000 94.531
4310.000000 94.441
4370.000000 94.355
4440.000000 94.260
4500.000000 94.182
4550.000000 94.123
4620.000000 94.054
4680.000000 94.014
4750.000000 93.993
4820.000000 93.999
4870.000000 94.017
4940.000000 94.059
5000.000000 94.107
5080.000000 94.186
5150.000000 94.269
5220.000000 94.362
5300.000000 94.480
5380.000000 94.605
5450.000000 94.718
5520.000000 94.830
5600.000000 94.957
5700.000000 95.115
5800.000000 95.276
5900.000000 95.436
6000.000000 95.594
6080.000000 95.714
6150.000000 95.810
6220.000000 95.897
6300.000000 95.983
6400.000000 96.067
6500.000000 96.123
6600.000000 96.151
6700.000000 96.153
6800.000000 96.132
6900.000000 96.098
7000.000000 96.059
7100.000000 96.027
7200.000000 96.008
7300.000000 96.008
7400.000000 96.028
7500.000000 96.072
7620.000000 96.158
7750.000000 96.288
7880.000000 96.441
8000.000000 96.582
8120.000000 96.688
8250.000000 96.717
8380.000000 96.602
8500.000000 96.328
8620.000000 95.875
8750.000000 95.185
8850.000000 94.532
9000.000000 93.413
9120.000000 92.452
9250.000000 91.398
9380.000000 90.363
9500.000000 89.444
9620.000000 88.571
9750.000000 87.684
9880.000000 86.858
10000.000000 86.151
10150.000000 85.342
10300.000000 84.612
10440.000000 83.999
10600.000000 83.377
10750.000000 82.866
10900.000000 82.424
11060.000000 82.026
11200.000000 81.737
11380.000000 81.448
11500.000000 81.306
11720.000000 81.149
11800.000000 81.124
12060.000000 81.172
12200.000000 81.278
12410.000000 81.548
12500.000000 81.704
12650.000000 82.018
12800.000000 82.401
13150.000000 83.528
13200.000000 83.707
13400.000000 84.426
13600.000000 85.067
13800.000000 85.500
14000.000000 85.608
14300.000000 85.088
14500.000000 84.386
14750.000000 83.338
15000.000000 82.333
15250.000000 81.536
15500.000000 81.030
15750.000000 80.875
16000.000000 81.143
16250.000000 81.880
16500.000000 82.955
16750.000000 83.841
17000.000000 83.769
17250.000000 82.332
17500.000000 79.822
17750.000000 76.920
18000.000000 74.186
18250.000000 71.842
18500.000000 69.894
18750.000000 68.277
19000.000000 66.899
19250.000000 65.649
19500.000000 64.402
19750.000000 63.130
