* Measurement data measured by REW V5.20.9
* Source: Frequency Response Averaged data
* Format: Averaged data produced from the rms magnitudes of Meze Advar Jul 12, Meze Advar Jul 12, Meze Advar Jul 12
* Dated: 12/07/2022 8:01:05 PM
* REW Settings:
*  C-weighting compensation: Off
*  Target level: 75.0 dB
* Note: ; Averaged data produced from the rms magnitudes of Meze Advar Jul 12, Meze Advar Jul 12, Meze Advar Jul 12
* Measurement: Meze Advar - L
* Smoothing: 1/24 octave
* Frequency Step: 1/48 octave
* Start Frequency: 2.200 Hz
*
* Freq(Hz) SPL(dB)
2.200000 74.605
2.240000 74.757
2.270000 74.871
2.300000 74.985
2.330000 75.100
2.360000 75.214
2.400000 75.366
2.430000 75.480
2.470000 75.632
2.500000 75.746
2.540000 75.898
2.580000 76.057
2.620000 76.233
2.650000 76.371
2.690000 76.560
2.720000 76.703
2.760000 76.894
2.800000 77.082
2.850000 77.307
2.900000 77.517
2.950000 77.704
3.000000 77.870
3.040000 77.991
3.070000 78.076
3.110000 78.185
3.150000 78.291
3.200000 78.423
3.250000 78.559
3.300000 78.703
3.350000 78.854
3.400000 79.006
3.450000 79.161
3.500000 79.316
3.550000 79.471
3.600000 79.627
3.650000 79.782
3.700000 79.938
3.750000 80.094
3.820000 80.312
3.870000 80.469
3.950000 80.718
4.000000 80.874
4.060000 81.059
4.120000 81.246
4.180000 81.434
4.250000 81.650
4.310000 81.833
4.370000 82.010
4.440000 82.212
4.500000 82.382
4.550000 82.521
4.620000 82.710
4.680000 82.866
4.750000 83.038
4.820000 83.199
4.870000 83.309
4.940000 83.456
5.000000 83.573
5.080000 83.719
5.150000 83.836
5.220000 83.942
5.300000 84.050
5.380000 84.146
5.450000 84.222
5.520000 84.290
5.600000 84.355
5.700000 84.420
5.800000 84.476
5.900000 84.528
6.000000 84.569
6.080000 84.598
6.150000 84.625
6.220000 84.658
6.300000 84.700
6.400000 84.757
6.500000 84.823
6.600000 84.905
6.700000 85.006
6.800000 85.122
6.900000 85.249
7.000000 85.385
7.100000 85.536
7.200000 85.696
7.300000 85.853
7.400000 86.006
7.500000 86.161
7.620000 86.337
7.750000 86.505
7.880000 86.653
8.000000 86.770
8.120000 86.866
8.250000 86.945
8.380000 87.008
8.500000 87.057
8.620000 87.092
8.750000 87.132
8.850000 87.173
9.000000 87.240
9.120000 87.310
9.250000 87.410
9.380000 87.533
9.500000 87.658
9.620000 87.796
9.750000 87.959
9.880000 88.116
10.000000 88.251
10.150000 88.409
10.300000 88.531
10.440000 88.612
10.600000 88.666
10.750000 88.672
10.900000 88.643
11.060000 88.593
11.200000 88.528
11.380000 88.461
11.500000 88.432
11.720000 88.431
11.800000 88.461
12.060000 88.642
12.200000 88.787
12.410000 89.053
12.500000 89.162
12.650000 89.349
12.800000 89.516
13.150000 89.765
13.200000 89.783
13.400000 89.806
13.600000 89.771
13.800000 89.677
14.000000 89.566
14.300000 89.396
14.500000 89.323
14.750000 89.287
15.000000 89.316
15.250000 89.378
15.500000 89.440
15.750000 89.483
16.000000 89.494
16.250000 89.487
16.500000 89.477
16.750000 89.487
17.000000 89.529
17.250000 89.599
17.500000 89.690
17.750000 89.775
18.000000 89.846
18.250000 89.889
18.500000 89.909
18.750000 89.915
19.000000 89.917
19.250000 89.930
19.500000 89.958
19.750000 90.001
20.000000 90.051
20.299999 90.110
20.600000 90.158
20.900000 90.192
21.200001 90.214
21.400000 90.227
21.799999 90.251
22.000000 90.262
22.400000 90.284
22.700001 90.295
23.000000 90.302
23.299999 90.307
23.600000 90.310
24.000000 90.316
24.299999 90.322
24.700001 90.331
25.000000 90.338
25.400000 90.347
25.799999 90.356
26.200001 90.364
26.500000 90.367
26.900000 90.373
27.200001 90.380
27.600000 90.398
28.000000 90.426
28.500000 90.463
29.000000 90.490
29.500000 90.507
30.000000 90.531
30.400000 90.563
30.700001 90.591
31.100000 90.619
31.500000 90.629
32.000000 90.616
32.500000 90.601
33.000000 90.618
33.500000 90.667
34.000000 90.714
34.500000 90.732
35.000000 90.721
35.500000 90.705
36.000000 90.696
36.500000 90.682
37.000000 90.655
37.500000 90.628
38.200001 90.639
38.700001 90.679
39.500000 90.697
40.000000 90.661
40.599998 90.618
41.200001 90.619
41.799999 90.637
42.500000 90.624
43.099998 90.598
43.700001 90.585
44.400002 90.586
45.000000 90.593
45.500000 90.595
46.200001 90.569
46.799999 90.521
47.500000 90.502
48.200001 90.517
48.700001 90.477
49.400002 90.321
50.000000 90.223
50.799999 90.307
51.500000 90.439
52.200001 90.474
53.000000 90.447
53.799999 90.442
54.500000 90.450
55.200001 90.451
56.000000 90.429
57.000000 90.360
58.000000 90.293
59.000000 90.264
60.000000 90.239
60.799999 90.208
61.500000 90.182
62.200001 90.182
63.000000 90.232
64.000000 90.283
65.000000 90.215
66.000000 90.138
67.000000 90.123
68.000000 90.101
69.000000 90.062
70.000000 90.038
71.000000 90.027
72.000000 90.003
73.000000 89.961
74.000000 89.904
75.000000 89.850
76.199997 89.819
77.500000 89.799
78.800003 89.776
80.000000 89.729
81.199997 89.696
82.500000 89.646
83.800003 89.579
85.000000 89.502
86.199997 89.452
87.500000 89.506
88.500000 89.562
90.000000 89.481
91.199997 89.409
92.500000 89.388
93.800003 89.368
95.000000 89.396
96.199997 89.466
97.500000 89.579
98.800003 89.830
100.000000 90.003
101.500000 89.748
103.000000 89.407
104.400002 89.261
106.000000 89.108
107.500000 89.012
109.000000 88.986
110.599998 88.956
112.000000 88.898
113.800003 88.857
115.000000 88.832
117.199997 88.809
118.000000 88.798
120.599998 88.699
122.000000 88.632
124.099998 88.485
125.000000 88.429
126.500000 88.367
128.000000 88.375
131.500000 88.445
132.000000 88.460
134.000000 88.528
136.000000 88.487
138.000000 88.423
140.000000 88.403
143.000000 88.372
145.000000 88.317
147.500000 88.241
150.000000 88.187
152.500000 88.176
155.000000 88.152
157.500000 88.100
160.000000 88.046
162.500000 87.987
165.000000 87.926
167.500000 87.893
170.000000 87.874
172.500000 87.853
175.000000 87.830
177.500000 87.807
180.000000 87.784
182.500000 87.753
185.000000 87.710
187.500000 87.664
190.000000 87.624
192.500000 87.588
195.000000 87.553
197.500000 87.515
200.000000 87.476
203.000000 87.430
206.000000 87.390
209.000000 87.354
212.000000 87.315
214.000000 87.287
218.000000 87.235
220.000000 87.210
224.000000 87.160
227.000000 87.120
230.000000 87.080
233.000000 87.041
236.000000 87.003
240.000000 86.954
243.000000 86.919
247.000000 86.875
250.000000 86.840
254.000000 86.791
258.000000 86.745
262.000000 86.698
265.000000 86.665
269.000000 86.623
272.000000 86.591
276.000000 86.552
280.000000 86.514
285.000000 86.464
290.000000 86.416
295.000000 86.370
300.000000 86.325
304.000000 86.287
307.000000 86.259
311.000000 86.221
315.000000 86.185
320.000000 86.142
325.000000 86.101
330.000000 86.061
335.000000 86.020
340.000000 85.982
345.000000 85.948
350.000000 85.915
355.000000 85.874
360.000000 85.830
365.000000 85.791
370.000000 85.757
375.000000 85.722
382.000000 85.673
387.000000 85.640
395.000000 85.585
400.000000 85.551
406.000000 85.509
412.000000 85.469
418.000000 85.433
425.000000 85.391
431.000000 85.352
437.000000 85.316
444.000000 85.280
450.000000 85.248
455.000000 85.217
462.000000 85.175
468.000000 85.142
475.000000 85.103
482.000000 85.065
487.000000 85.037
494.000000 85.000
500.000000 84.971
508.000000 84.931
515.000000 84.896
522.000000 84.863
530.000000 84.826
538.000000 84.789
545.000000 84.756
552.000000 84.723
560.000000 84.690
570.000000 84.648
580.000000 84.607
590.000000 84.569
600.000000 84.533
608.000000 84.503
615.000000 84.477
622.000000 84.452
630.000000 84.425
640.000000 84.391
650.000000 84.357
660.000000 84.334
670.000000 84.312
680.000000 84.287
690.000000 84.264
700.000000 84.245
710.000000 84.228
720.000000 84.213
730.000000 84.201
740.000000 84.194
750.000000 84.187
762.000000 84.177
775.000000 84.173
788.000000 84.176
800.000000 84.183
812.000000 84.192
825.000000 84.206
838.000000 84.224
850.000000 84.245
862.000000 84.273
875.000000 84.307
885.000000 84.335
900.000000 84.382
912.000000 84.421
925.000000 84.468
938.000000 84.517
950.000000 84.564
962.000000 84.612
975.000000 84.664
988.000000 84.716
1000.000000 84.765
1015.000000 84.823
1030.000000 84.879
1044.000000 84.929
1060.000000 84.980
1075.000000 85.022
1090.000000 85.061
1106.000000 85.106
1120.000000 85.158
1138.000000 85.261
1150.000000 85.358
1172.000000 85.571
1180.000000 85.647
1206.000000 85.844
1220.000000 85.916
1241.000000 85.996
1250.000000 86.024
1265.000000 86.068
1280.000000 86.108
1315.000000 86.191
1320.000000 86.203
1340.000000 86.249
1360.000000 86.296
1380.000000 86.340
1400.000000 86.384
1430.000000 86.450
1450.000000 86.494
1475.000000 86.548
1500.000000 86.600
1525.000000 86.651
1550.000000 86.700
1575.000000 86.750
1600.000000 86.798
1625.000000 86.842
1650.000000 86.881
1675.000000 86.916
1700.000000 86.946
1725.000000 86.977
1750.000000 87.018
1775.000000 87.079
1800.000000 87.161
1825.000000 87.253
1850.000000 87.343
1875.000000 87.430
1900.000000 87.530
1925.000000 87.658
1950.000000 87.818
1975.000000 87.993
2000.000000 88.157
2030.000000 88.308
2060.000000 88.401
2090.000000 88.445
2120.000000 88.451
2140.000000 88.440
2180.000000 88.396
2200.000000 88.371
2240.000000 88.336
2270.000000 88.341
2300.000000 88.390
2330.000000 88.494
2360.000000 88.653
2400.000000 88.920
2430.000000 89.123
2470.000000 89.354
2500.000000 89.484
2540.000000 89.597
2580.000000 89.649
2620.000000 89.653
2650.000000 89.635
2690.000000 89.598
2720.000000 89.569
2760.000000 89.533
2800.000000 89.494
2850.000000 89.432
2900.000000 89.346
2950.000000 89.235
3000.000000 89.106
3040.000000 88.994
3070.000000 88.906
3110.000000 88.786
3150.000000 88.664
3200.000000 88.511
3250.000000 88.360
3300.000000 88.212
3350.000000 88.072
3400.000000 87.941
3450.000000 87.820
3500.000000 87.705
3550.000000 87.594
3600.000000 87.487
3650.000000 87.385
3700.000000 87.287
3750.000000 87.194
3820.000000 87.077
3870.000000 87.004
3950.000000 86.904
4000.000000 86.854
4060.000000 86.806
4120.000000 86.767
4180.000000 86.732
4250.000000 86.696
4310.000000 86.673
4370.000000 86.660
4440.000000 86.659
4500.000000 86.674
4550.000000 86.700
4620.000000 86.766
4680.000000 86.852
4750.000000 86.985
4820.000000 87.149
4870.000000 87.283
4940.000000 87.491
5000.000000 87.688
5080.000000 87.976
5150.000000 88.252
5220.000000 88.550
5300.000000 88.918
5380.000000 89.315
5450.000000 89.687
5520.000000 90.080
5600.000000 90.554
5700.000000 91.177
5800.000000 91.831
5900.000000 92.512
6000.000000 93.199
6080.000000 93.731
6150.000000 94.165
6220.000000 94.552
6300.000000 94.916
6400.000000 95.228
6500.000000 95.369
6600.000000 95.347
6700.000000 95.191
6800.000000 94.943
6900.000000 94.647
7000.000000 94.344
7100.000000 94.065
7200.000000 93.832
7300.000000 93.651
7400.000000 93.530
7500.000000 93.480
7620.000000 93.538
7750.000000 93.755
7880.000000 94.095
8000.000000 94.447
8120.000000 94.743
8250.000000 94.860
8380.000000 94.620
8500.000000 94.008
8620.000000 93.038
8750.000000 91.691
8850.000000 90.535
9000.000000 88.742
9120.000000 87.335
9250.000000 85.883
9380.000000 84.523
9500.000000 83.355
9620.000000 82.272
9750.000000 81.200
9880.000000 80.248
10000.000000 79.500
10150.000000 78.795
10300.000000 78.426
10440.000000 78.443
10600.000000 78.867
10750.000000 79.510
10900.000000 80.190
11060.000000 80.772
11200.000000 81.095
11380.000000 81.281
11500.000000 81.311
11720.000000 81.315
11800.000000 81.331
12060.000000 81.531
12200.000000 81.769
12410.000000 82.342
12500.000000 82.679
12650.000000 83.380
12800.000000 84.274
13150.000000 87.140
13200.000000 87.608
13400.000000 89.359
13600.000000 90.402
13800.000000 90.239
14000.000000 88.940
14300.000000 86.099
14500.000000 84.373
14750.000000 82.765
15000.000000 81.784
15250.000000 81.407
15500.000000 81.659
15750.000000 82.530
16000.000000 83.645
16250.000000 84.052
16500.000000 82.874
16750.000000 80.140
17000.000000 76.646
17250.000000 73.204
17500.000000 70.169
17750.000000 67.544
18000.000000 65.268
18250.000000 63.276
18500.000000 61.509
18750.000000 59.923
19000.000000 58.471
19250.000000 57.085
19500.000000 55.659
19750.000000 54.152
