* Measurement data measured by REW V5.20.9
* Source: Headset (USB-C to 3.5mm Headphone Jack Adapter), MICROPHONE (Master Volume), L, volume: 0.260. Timing signal peak level -36.8 dBFS, measurement signal peak level -26.8 dBFS
* Format: 256k Log Swept Sine, 1 sweep at -12.0 dBFS using an acoustic timing reference
* Dated: 08/07/2024 12:07:08 PM
* REW Settings:
*  C-weighting compensation: Off
*  Target level: 75.0 dB
* Note: ; Delay -0.0372 ms (-13 mm, -0.5 in) using estimated IR delay relative to Acoustic reference on SPEAKER L with no timing offset
* Measurement: Arete 75ohm L
* Smoothing: 1/24 octave
* Frequency Step: 1/48 octave
* Start Frequency: 1.000 Hz
*
* Freq(Hz) SPL(dB) Phase(degrees)
1.000000 44.758 -110.3147
1.015000 45.157 -109.1402
1.030000 45.549 -108.0640
1.044000 45.904 -107.1554
1.060000 46.298 -106.2393
1.075000 46.652 -105.5074
1.090000 46.989 -104.9069
1.106000 47.329 -104.4216
1.120000 47.623 -104.1369
1.138000 47.996 -103.9526
1.150000 48.243 -103.9358
1.172000 48.692 -104.1063
1.180000 48.853 -104.2280
1.206000 49.373 -104.8196
1.220000 49.649 -105.2494
1.241000 50.059 -106.0182
1.250000 50.233 -106.3875
1.265000 50.520 -107.0485
1.280000 50.804 -107.7576
1.315000 51.455 -109.5445
1.320000 51.547 -109.8095
1.340000 51.910 -110.8797
1.360000 52.267 -111.9484
1.380000 52.619 -112.9924
1.400000 52.964 -113.9883
1.430000 53.471 -115.3416
1.450000 53.801 -116.1161
1.475000 54.204 -116.9167
1.500000 54.595 -117.6569
1.525000 54.975 -118.3747
1.550000 55.344 -119.0743
1.575000 55.702 -119.7601
1.600000 56.051 -120.4365
1.625000 56.392 -121.1077
1.650000 56.724 -121.7783
1.675000 57.050 -122.4524
1.700000 57.369 -123.1345
1.725000 57.683 -123.8289
1.750000 57.992 -124.5400
1.775000 58.298 -125.2720
1.800000 58.600 -126.0294
1.825000 58.900 -126.8165
1.850000 59.196 -127.6368
1.875000 59.487 -128.4884
1.900000 59.771 -129.3670
1.925000 60.049 -130.2684
1.950000 60.322 -131.1884
1.975000 60.589 -132.1228
2.000000 60.852 -133.0674
2.030000 61.161 -134.2084
2.060000 61.464 -135.3507
2.090000 61.761 -136.4871
2.120000 62.054 -137.6102
2.140000 62.247 -138.3480
2.180000 62.628 -139.7876
2.200000 62.817 -140.4853
2.240000 63.186 -141.8575
2.270000 63.457 -142.8747
2.300000 63.721 -143.8819
2.330000 63.980 -144.8793
2.360000 64.235 -145.8672
2.400000 64.567 -147.1698
2.430000 64.811 -148.1362
2.470000 65.131 -149.4111
2.500000 65.366 -150.3573
2.540000 65.676 -151.6060
2.580000 65.981 -152.8396
2.620000 66.279 -154.0502
2.650000 66.498 -154.9439
2.690000 66.783 -156.1193
2.720000 66.993 -156.9907
2.760000 67.267 -158.1421
2.800000 67.536 -159.2849
2.850000 67.865 -160.7067
2.900000 68.188 -162.1280
2.950000 68.504 -163.5562
3.000000 68.812 -164.9963
3.040000 69.053 -166.1516
3.070000 69.230 -167.0164
3.110000 69.462 -168.1634
3.150000 69.690 -169.2987
3.200000 69.969 -170.6935
3.250000 70.242 -172.0520
3.300000 70.511 -173.3641
3.350000 70.774 -174.6234
3.400000 71.031 -175.8372
3.450000 71.282 -177.0160
3.500000 71.527 -178.1706
3.550000 71.767 -179.3115
3.600000 72.003 179.5507
3.650000 72.235 178.4054
3.700000 72.463 177.2458
3.750000 72.685 176.0799
3.820000 72.989 174.4500
3.870000 73.201 173.2968
3.950000 73.532 171.4893
4.000000 73.735 170.3937
4.060000 73.974 169.1239
4.120000 74.207 167.9007
4.180000 74.435 166.7139
4.250000 74.695 165.3616
4.310000 74.912 164.2186
4.370000 75.126 163.0797
4.440000 75.371 161.7471
4.500000 75.575 160.6096
4.550000 75.743 159.6686
4.620000 75.972 158.3666
4.680000 76.165 157.2693
4.750000 76.385 156.0166
4.820000 76.602 154.7979
4.870000 76.753 153.9465
4.940000 76.960 152.7768
5.000000 77.135 151.7910
5.080000 77.363 150.4945
5.150000 77.558 149.3714
5.220000 77.750 148.2621
5.300000 77.963 147.0137
5.380000 78.172 145.7858
5.450000 78.351 144.7282
5.520000 78.527 143.6863
5.600000 78.724 142.5162
5.700000 78.963 141.0825
5.800000 79.196 139.6780
5.900000 79.424 138.3002
6.000000 79.646 136.9527
6.080000 79.818 135.8944
6.150000 79.967 134.9804
6.220000 80.113 134.0756
6.300000 80.277 133.0526
6.400000 80.477 131.7930
6.500000 80.671 130.5550
6.600000 80.862 129.3386
6.700000 81.047 128.1459
6.800000 81.228 126.9754
6.900000 81.404 125.8230
7.000000 81.577 124.6853
7.100000 81.745 123.5636
7.200000 81.909 122.4587
7.300000 82.069 121.3706
7.400000 82.226 120.3003
7.500000 82.379 119.2481
7.620000 82.557 118.0057
7.750000 82.746 116.6810
7.880000 82.929 115.3799
8.000000 83.093 114.1987
8.120000 83.253 113.0353
8.250000 83.422 111.7963
8.380000 83.586 110.5767
8.500000 83.734 109.4662
8.620000 83.878 108.3714
8.750000 84.029 107.2016
8.850000 84.143 106.3122
9.000000 84.310 104.9962
9.120000 84.439 103.9585
9.250000 84.576 102.8493
9.380000 84.709 101.7560
9.500000 84.828 100.7600
9.620000 84.945 99.7765
9.750000 85.068 98.7255
9.880000 85.188 97.6885
10.000000 85.297 96.7440
10.150000 85.430 95.5802
10.300000 85.559 94.4314
10.440000 85.677 93.3734
10.600000 85.809 92.1785
10.750000 85.929 91.0701
10.900000 86.046 89.9736
11.060000 86.168 88.8139
11.200000 86.272 87.8076
11.380000 86.401 86.5267
11.500000 86.485 85.6803
11.720000 86.632 84.1476
11.800000 86.684 83.5973
12.060000 86.845 81.8359
12.200000 86.928 80.9091
12.410000 87.047 79.5476
12.500000 87.097 78.9763
12.650000 87.178 78.0403
12.800000 87.258 77.1236
13.150000 87.437 75.0602
13.200000 87.463 74.7726
13.400000 87.563 73.6416
13.600000 87.663 72.5319
13.800000 87.762 71.4409
14.000000 87.860 70.3605
14.300000 88.004 68.7549
14.500000 88.098 67.6886
14.750000 88.212 66.3595
15.000000 88.321 65.0346
15.250000 88.423 63.7178
15.500000 88.518 62.4163
15.750000 88.607 61.1348
16.000000 88.689 59.8812
16.250000 88.766 58.6600
16.500000 88.838 57.4719
16.750000 88.908 56.3167
17.000000 88.975 55.1875
17.250000 89.040 54.0790
17.500000 89.104 52.9842
17.750000 89.165 51.8963
18.000000 89.223 50.8148
18.250000 89.278 49.7395
18.500000 89.328 48.6771
18.750000 89.374 47.6334
19.000000 89.416 46.6138
19.250000 89.456 45.6236
19.500000 89.496 44.6602
19.750000 89.535 43.7207
20.000000 89.576 42.7949
20.299999 89.627 41.6876
20.600000 89.679 40.5717
20.900000 89.728 39.4396
21.200001 89.773 38.2941
21.400000 89.799 37.5316
21.799999 89.842 36.0318
22.000000 89.860 35.3059
22.400000 89.890 33.9188
22.700001 89.913 32.9326
23.000000 89.938 31.9778
23.299999 89.965 31.0342
23.600000 89.993 30.0885
24.000000 90.026 28.8188
24.299999 90.046 27.8720
24.700001 90.066 26.6437
25.000000 90.078 25.7596
25.400000 90.094 24.6221
25.799999 90.112 23.4947
26.200001 90.128 22.3438
26.500000 90.135 21.4695
26.900000 90.133 20.3244
27.200001 90.127 19.5118
27.600000 90.119 18.5046
28.000000 90.123 17.5414
28.500000 90.143 16.2646
29.000000 90.158 14.8103
29.500000 90.141 13.2676
30.000000 90.090 11.8572
30.400000 90.043 10.9151
30.700001 90.015 10.3035
31.100000 89.992 9.5406
31.500000 89.985 8.7646
32.000000 89.981 7.7322
32.500000 89.972 6.6780
33.000000 89.960 5.6625
33.500000 89.951 4.6760
34.000000 89.942 3.6747
34.500000 89.928 2.6553
35.000000 89.903 1.6569
35.500000 89.873 0.7058
36.000000 89.843 -0.2163
36.500000 89.809 -1.1367
37.000000 89.770 -2.0513
37.500000 89.725 -2.9318
38.200001 89.662 -4.0907
38.700001 89.622 -4.8994
39.500000 89.561 -6.2229
40.000000 89.521 -7.0536
40.599998 89.471 -8.0276
41.200001 89.422 -8.9795
41.799999 89.372 -9.9172
42.500000 89.310 -10.9762
43.099998 89.253 -11.8396
43.700001 89.195 -12.6645
44.400002 89.125 -13.5769
45.000000 89.065 -14.3218
45.500000 89.017 -14.9398
46.200001 88.946 -15.8214
46.799999 88.881 -16.5720
47.500000 88.807 -17.4409
48.200001 88.731 -18.3634
48.700001 88.668 -19.0374
49.400002 88.567 -19.8778
50.000000 88.489 -20.4665
50.799999 88.413 -21.2354
51.500000 88.354 -21.9978
52.200001 88.287 -22.7577
53.000000 88.209 -23.5582
53.799999 88.131 -24.3391
54.500000 88.056 -24.9951
55.200001 87.978 -25.5951
56.000000 87.890 -26.2395
57.000000 87.783 -27.0615
58.000000 87.671 -27.9349
59.000000 87.550 -28.8046
60.000000 87.426 -29.6223
60.799999 87.331 -30.2397
61.500000 87.252 -30.7624
62.200001 87.176 -31.2786
63.000000 87.089 -31.8599
64.000000 86.979 -32.5598
65.000000 86.864 -33.2110
66.000000 86.748 -33.8061
67.000000 86.633 -34.3739
68.000000 86.517 -34.9298
69.000000 86.402 -35.4751
70.000000 86.289 -36.0156
71.000000 86.176 -36.5471
72.000000 86.065 -37.0588
73.000000 85.956 -37.5500
74.000000 85.848 -38.0235
75.000000 85.737 -38.4727
76.199997 85.602 -38.9714
77.500000 85.456 -39.4542
78.800003 85.313 -39.9171
80.000000 85.183 -40.3462
81.199997 85.054 -40.7640
82.500000 84.915 -41.1942
83.800003 84.780 -41.6031
85.000000 84.656 -41.9663
86.199997 84.531 -42.2940
87.500000 84.396 -42.6057
88.500000 84.294 -42.8223
90.000000 84.143 -43.1258
91.199997 84.022 -43.3619
92.500000 83.893 -43.6157
93.800003 83.763 -43.8710
95.000000 83.644 -44.0958
96.199997 83.528 -44.3099
97.500000 83.405 -44.5334
98.800003 83.283 -44.7496
100.000000 83.166 -44.9097
101.500000 83.022 -45.0076
103.000000 82.888 -45.0906
104.400002 82.764 -45.1814
106.000000 82.622 -45.2802
107.500000 82.489 -45.3674
109.000000 82.358 -45.4368
110.599998 82.220 -45.4802
112.000000 82.102 -45.5000
113.800003 81.953 -45.5169
115.000000 81.855 -45.5264
117.199997 81.677 -45.5334
118.000000 81.612 -45.5253
120.599998 81.407 -45.4463
122.000000 81.301 -45.3927
124.099998 81.142 -45.3003
125.000000 81.074 -45.2479
126.500000 80.963 -45.1473
128.000000 80.853 -45.0336
131.500000 80.606 -44.7560
132.000000 80.572 -44.7167
134.000000 80.439 -44.5445
136.000000 80.311 -44.3655
138.000000 80.182 -44.1771
140.000000 80.054 -43.9795
143.000000 79.867 -43.6197
145.000000 79.748 -43.3267
147.500000 79.590 -42.8969
150.000000 79.445 -42.4374
152.500000 79.314 -42.2047
155.000000 79.183 -41.9688
157.500000 79.059 -41.6367
160.000000 78.935 -41.2528
162.500000 78.812 -40.8591
165.000000 78.693 -40.4548
167.500000 78.577 -40.0285
170.000000 78.466 -39.5950
172.500000 78.359 -39.1747
175.000000 78.254 -38.7560
177.500000 78.152 -38.3303
180.000000 78.054 -37.8866
182.500000 77.960 -37.4280
185.000000 77.870 -36.9758
187.500000 77.783 -36.5511
190.000000 77.696 -36.1382
192.500000 77.610 -35.7047
195.000000 77.529 -35.2481
197.500000 77.456 -34.8019
200.000000 77.382 -34.3629
203.000000 77.290 -33.8105
206.000000 77.200 -33.2644
209.000000 77.117 -32.7274
212.000000 77.039 -32.1961
214.000000 76.987 -31.8458
218.000000 76.887 -31.1529
220.000000 76.840 -30.8051
224.000000 76.750 -30.1007
227.000000 76.686 -29.5802
230.000000 76.625 -29.0725
233.000000 76.565 -28.5726
236.000000 76.505 -28.0726
240.000000 76.431 -27.3915
243.000000 76.377 -26.8764
247.000000 76.294 -26.1931
250.000000 76.239 -25.7002
254.000000 76.192 -25.1077
258.000000 76.144 -24.4998
262.000000 76.089 -23.8706
265.000000 76.048 -23.4130
269.000000 75.994 -22.8004
272.000000 75.956 -22.3482
276.000000 75.908 -21.7586
280.000000 75.865 -21.1728
285.000000 75.815 -20.4461
290.000000 75.762 -19.7334
295.000000 75.710 -19.0288
300.000000 75.662 -18.3157
304.000000 75.629 -17.7796
307.000000 75.606 -17.3871
311.000000 75.578 -16.8619
315.000000 75.548 -16.3340
320.000000 75.511 -15.6796
325.000000 75.478 -15.0459
330.000000 75.446 -14.4233
335.000000 75.415 -13.8091
340.000000 75.387 -13.1929
345.000000 75.359 -12.5607
350.000000 75.332 -11.9371
355.000000 75.309 -11.3680
360.000000 75.293 -10.8164
365.000000 75.277 -10.2601
370.000000 75.262 -9.6932
375.000000 75.249 -9.1355
382.000000 75.232 -8.4067
387.000000 75.218 -7.8974
395.000000 75.200 -7.0826
400.000000 75.189 -6.6095
406.000000 75.178 -6.0531
412.000000 75.167 -5.4917
418.000000 75.155 -4.9504
425.000000 75.143 -4.3133
431.000000 75.131 -3.7717
437.000000 75.117 -3.2593
444.000000 75.098 -2.6835
450.000000 75.080 -2.1717
455.000000 75.072 -1.7240
462.000000 75.064 -1.1034
468.000000 75.055 -0.5878
475.000000 75.044 -0.0034
482.000000 75.034 0.5747
487.000000 75.027 0.9917
494.000000 75.019 1.5876
500.000000 75.015 2.0851
508.000000 75.008 2.7293
515.000000 74.999 3.2963
522.000000 74.990 3.8767
530.000000 74.984 4.5386
538.000000 74.981 5.1928
545.000000 74.979 5.7649
552.000000 74.974 6.3270
560.000000 74.967 6.9528
570.000000 74.962 7.7481
580.000000 74.959 8.5455
590.000000 74.957 9.3313
600.000000 74.959 10.1211
608.000000 74.964 10.7568
615.000000 74.968 11.3188
622.000000 74.971 11.8895
630.000000 74.975 12.5380
640.000000 74.980 13.3073
650.000000 74.985 14.0720
660.000000 74.998 14.9024
670.000000 75.012 15.7397
680.000000 75.024 16.5752
690.000000 75.036 17.4043
700.000000 75.053 18.2336
710.000000 75.071 19.0770
720.000000 75.093 19.9364
730.000000 75.118 20.7943
740.000000 75.149 21.6554
750.000000 75.182 22.5322
762.000000 75.220 23.5976
775.000000 75.272 24.7656
788.000000 75.334 25.9373
800.000000 75.397 27.0187
812.000000 75.470 28.0953
825.000000 75.559 29.2436
838.000000 75.657 30.3570
850.000000 75.757 31.3477
862.000000 75.863 32.3138
875.000000 75.984 33.3150
885.000000 76.082 34.0520
900.000000 76.232 35.1004
912.000000 76.354 35.8800
925.000000 76.490 36.6825
938.000000 76.629 37.4586
950.000000 76.759 38.1457
962.000000 76.894 38.7895
975.000000 77.042 39.4396
988.000000 77.191 40.0347
1000.000000 77.329 40.5418
1015.000000 77.505 41.1330
1030.000000 77.681 41.6690
1044.000000 77.846 42.1173
1060.000000 78.035 42.5548
1075.000000 78.210 42.9171
1090.000000 78.382 43.2407
1106.000000 78.564 43.5220
1120.000000 78.721 43.7115
1138.000000 78.919 43.9015
1150.000000 79.048 44.0002
1172.000000 79.279 44.1225
1180.000000 79.360 44.1505
1206.000000 79.619 44.1799
1220.000000 79.755 44.1571
1241.000000 79.953 44.0905
1250.000000 80.036 44.0489
1265.000000 80.171 43.9586
1280.000000 80.302 43.8514
1315.000000 80.596 43.5465
1320.000000 80.637 43.4978
1340.000000 80.797 43.2903
1360.000000 80.952 43.0569
1380.000000 81.103 42.7961
1400.000000 81.250 42.5141
1430.000000 81.464 42.0543
1450.000000 81.601 41.7304
1475.000000 81.766 41.2998
1500.000000 81.926 40.8328
1525.000000 82.080 40.3434
1550.000000 82.227 39.8309
1575.000000 82.370 39.2949
1600.000000 82.506 38.7219
1625.000000 82.635 38.1277
1650.000000 82.759 37.5104
1675.000000 82.877 36.8728
1700.000000 82.987 36.2146
1725.000000 83.091 35.5365
1750.000000 83.189 34.8463
1775.000000 83.280 34.1425
1800.000000 83.363 33.4256
1825.000000 83.440 32.6930
1850.000000 83.509 31.9510
1875.000000 83.571 31.2126
1900.000000 83.627 30.4768
1925.000000 83.676 29.7396
1950.000000 83.718 29.0051
1975.000000 83.754 28.2733
2000.000000 83.784 27.5515
2030.000000 83.811 26.7079
2060.000000 83.830 25.8847
2090.000000 83.839 25.0806
2120.000000 83.842 24.3015
2140.000000 83.840 23.7975
2180.000000 83.829 22.8180
2200.000000 83.819 22.3459
2240.000000 83.793 21.4411
2270.000000 83.767 20.7986
2300.000000 83.736 20.1899
2330.000000 83.702 19.6135
2360.000000 83.664 19.0668
2400.000000 83.610 18.3797
2430.000000 83.565 17.9000
2470.000000 83.502 17.3062
2500.000000 83.453 16.8920
2540.000000 83.386 16.3796
2580.000000 83.316 15.9165
2620.000000 83.244 15.4966
2650.000000 83.189 15.2077
2690.000000 83.115 14.8575
2720.000000 83.060 14.6180
2760.000000 82.985 14.3320
2800.000000 82.911 14.0829
2850.000000 82.818 13.8175
2900.000000 82.724 13.6045
2950.000000 82.630 13.4565
3000.000000 82.539 13.3630
3040.000000 82.469 13.3226
3070.000000 82.418 13.3101
3110.000000 82.352 13.3153
3150.000000 82.289 13.3395
3200.000000 82.214 13.3798
3250.000000 82.140 13.4402
3300.000000 82.068 13.5294
3350.000000 81.995 13.6446
3400.000000 81.924 13.7995
3450.000000 81.856 13.9946
3500.000000 81.792 14.2244
3550.000000 81.732 14.4944
3600.000000 81.678 14.8077
3650.000000 81.632 15.1592
3700.000000 81.596 15.5383
3750.000000 81.570 15.9375
3820.000000 81.554 16.5129
3870.000000 81.558 16.9103
3950.000000 81.590 17.4758
4000.000000 81.628 17.7622
4060.000000 81.688 18.0101
4120.000000 81.762 18.1182
4180.000000 81.847 18.0489
4250.000000 81.953 17.7162
4310.000000 82.042 17.1988
4370.000000 82.122 16.4537
4440.000000 82.193 15.2968
4500.000000 82.224 14.0779
4550.000000 82.223 12.9253
4620.000000 82.171 11.1671
4680.000000 82.074 9.5958
4750.000000 81.897 7.7987
4820.000000 81.650 6.1834
4870.000000 81.435 5.2292
4940.000000 81.091 4.2807
5000.000000 80.775 3.9024
5080.000000 80.359 4.0962
5150.000000 80.044 4.9085
5220.000000 79.821 6.1680
5300.000000 79.730 7.6788
5380.000000 79.815 8.4815
5450.000000 79.952 7.9811
5520.000000 80.022 6.1976
5600.000000 79.888 3.1776
5700.000000 79.343 -0.3241
5800.000000 78.519 -2.0160
5900.000000 77.633 -1.6763
6000.000000 76.820 0.1727
6080.000000 76.259 2.3597
6150.000000 75.837 4.6075
6220.000000 75.478 7.0668
6300.000000 75.140 10.0439
6400.000000 74.819 13.9140
6500.000000 74.601 17.8402
6600.000000 74.480 21.7232
6700.000000 74.451 25.4878
6800.000000 74.512 29.0758
6900.000000 74.663 32.3930
7000.000000 74.899 35.3418
7100.000000 75.217 37.8181
7200.000000 75.610 39.6750
7300.000000 76.058 40.7327
7400.000000 76.528 40.8363
7500.000000 76.982 39.9281
7620.000000 77.450 37.4924
7750.000000 77.773 33.2988
7880.000000 77.804 27.9930
8000.000000 77.530 22.9817
8120.000000 76.993 18.7489
8250.000000 76.207 15.6554
8380.000000 75.325 14.2703
8500.000000 74.510 14.3555
8620.000000 73.741 15.4721
8750.000000 72.999 17.5501
8850.000000 72.503 19.6061
9000.000000 71.898 23.1812
9120.000000 71.533 26.2477
9250.000000 71.249 29.6067
9380.000000 71.082 32.8545
9500.000000 71.025 35.5886
9620.000000 71.046 37.8718
9750.000000 71.129 39.6929
9880.000000 71.242 40.8865
10000.000000 71.367 41.4310
10150.000000 71.545 41.0662
10300.000000 71.672 39.0774
10440.000000 71.595 35.7525
10600.000000 71.101 31.5000
10750.000000 70.243 29.0577
10900.000000 69.209 29.2658
11060.000000 68.193 32.0117
11200.000000 67.503 35.5692
11380.000000 66.882 40.6621
11500.000000 66.602 44.1265
11720.000000 66.305 50.2678
11800.000000 66.259 52.3651
12060.000000 66.296 58.7649
12200.000000 66.427 62.0037
12410.000000 66.792 66.4159
12500.000000 67.018 68.0795
12650.000000 67.497 70.4612
12800.000000 68.109 72.1635
13150.000000 70.010 71.7078
13200.000000 70.316 70.9296
13400.000000 71.495 65.4058
13600.000000 72.368 55.7740
13800.000000 72.651 43.2568
14000.000000 72.241 30.7703
14300.000000 70.720 17.3198
14500.000000 69.539 12.4482
14750.000000 68.273 9.5527
15000.000000 67.420 8.3914
15250.000000 67.021 7.4043
15500.000000 67.046 5.3516
15750.000000 67.392 1.0393
16000.000000 67.893 -6.1465
16250.000000 68.470 -16.4973
16500.000000 68.924 -31.2938
16750.000000 68.778 -50.0087
17000.000000 67.846 -68.3974
17250.000000 66.463 -83.5466
17500.000000 65.080 -96.0114
17750.000000 63.961 -107.6932
18000.000000 63.145 -120.3449
18250.000000 62.517 -135.2522
18500.000000 61.872 -153.1212
18750.000000 60.979 -173.5580
19000.000000 59.723 165.1279
19250.000000 58.236 144.2850
19500.000000 56.852 123.1230
19750.000000 55.777 101.4315
