* Measurement data measured by REW V5.20.9
* Source: Frequency Response Averaged data
* Format: Averaged data produced from the rms magnitudes of Blessing 2 Jul 11, Blessing 2 Jul 11, Blessing 2 Jul 11
* Dated: 11/07/2022 9:50:59 PM
* REW Settings:
*  C-weighting compensation: Off
*  Target level: 75.0 dB
* Note: ; Averaged data produced from the rms magnitudes of Blessing 2 Jul 11, Blessing 2 Jul 11, Blessing 2 Jul 11
* Measurement: Blessing 2 L
* Smoothing: 1/24 octave
* Frequency Step: 1/48 octave
* Start Frequency: 2.200 Hz
*
* Freq(Hz) SPL(dB)
2.200000 80.584
2.240000 80.760
2.270000 80.892
2.300000 81.024
2.330000 81.155
2.360000 81.287
2.400000 81.463
2.430000 81.594
2.470000 81.770
2.500000 81.902
2.540000 82.077
2.580000 82.260
2.620000 82.460
2.650000 82.616
2.690000 82.829
2.720000 82.991
2.760000 83.206
2.800000 83.417
2.850000 83.668
2.900000 83.898
2.950000 84.101
3.000000 84.280
3.040000 84.409
3.070000 84.500
3.110000 84.613
3.150000 84.721
3.200000 84.852
3.250000 84.982
3.300000 85.116
3.350000 85.251
3.400000 85.383
3.450000 85.513
3.500000 85.640
3.550000 85.763
3.600000 85.883
3.650000 85.999
3.700000 86.111
3.750000 86.219
3.820000 86.363
3.870000 86.462
3.950000 86.617
4.000000 86.713
4.060000 86.827
4.120000 86.939
4.180000 87.049
4.250000 87.175
4.310000 87.281
4.370000 87.387
4.440000 87.509
4.500000 87.614
4.550000 87.700
4.620000 87.819
4.680000 87.919
4.750000 88.033
4.820000 88.144
4.870000 88.222
4.940000 88.329
5.000000 88.419
5.080000 88.535
5.150000 88.634
5.220000 88.729
5.300000 88.835
5.380000 88.938
5.450000 89.023
5.520000 89.106
5.600000 89.196
5.700000 89.302
5.800000 89.403
5.900000 89.499
6.000000 89.590
6.080000 89.660
6.150000 89.719
6.220000 89.777
6.300000 89.842
6.400000 89.920
6.500000 89.995
6.600000 90.069
6.700000 90.141
6.800000 90.212
6.900000 90.281
7.000000 90.347
7.100000 90.412
7.200000 90.475
7.300000 90.535
7.400000 90.593
7.500000 90.647
7.620000 90.709
7.750000 90.771
7.880000 90.829
8.000000 90.878
8.120000 90.926
8.250000 90.975
8.380000 91.022
8.500000 91.067
8.620000 91.112
8.750000 91.161
8.850000 91.200
9.000000 91.262
9.120000 91.311
9.250000 91.365
9.380000 91.419
9.500000 91.467
9.620000 91.512
9.750000 91.559
9.880000 91.601
10.000000 91.635
10.150000 91.673
10.300000 91.706
10.440000 91.733
10.600000 91.763
10.750000 91.792
10.900000 91.824
11.060000 91.865
11.200000 91.907
11.380000 91.969
11.500000 92.016
11.720000 92.106
11.800000 92.139
12.060000 92.241
12.200000 92.286
12.410000 92.340
12.500000 92.355
12.650000 92.370
12.800000 92.375
13.150000 92.350
13.200000 92.346
13.400000 92.323
13.600000 92.310
13.800000 92.311
14.000000 92.332
14.300000 92.399
14.500000 92.461
14.750000 92.541
15.000000 92.612
15.250000 92.659
15.500000 92.680
15.750000 92.678
16.000000 92.662
16.250000 92.646
16.500000 92.636
16.750000 92.642
17.000000 92.659
17.250000 92.684
17.500000 92.709
17.750000 92.725
18.000000 92.731
18.250000 92.726
18.500000 92.715
18.750000 92.702
19.000000 92.691
19.250000 92.687
19.500000 92.687
19.750000 92.691
20.000000 92.695
20.299999 92.699
20.600000 92.701
20.900000 92.702
21.200001 92.708
21.400000 92.715
21.799999 92.735
22.000000 92.748
22.400000 92.769
22.700001 92.779
23.000000 92.783
23.299999 92.783
23.600000 92.786
24.000000 92.804
24.299999 92.832
24.700001 92.888
25.000000 92.939
25.400000 93.010
25.799999 93.071
26.200001 93.106
26.500000 93.108
26.900000 93.071
27.200001 93.014
27.600000 92.914
28.000000 92.815
28.500000 92.741
29.000000 92.732
29.500000 92.737
30.000000 92.710
30.400000 92.673
30.700001 92.656
31.100000 92.665
31.500000 92.696
32.000000 92.701
32.500000 92.612
33.000000 92.461
33.500000 92.363
34.000000 92.397
34.500000 92.521
35.000000 92.631
35.500000 92.664
36.000000 92.640
36.500000 92.610
37.000000 92.609
37.500000 92.639
38.200001 92.698
38.700001 92.726
39.500000 92.722
40.000000 92.701
40.599998 92.681
41.200001 92.672
41.799999 92.680
42.500000 92.723
43.099998 92.772
43.700001 92.777
44.400002 92.695
45.000000 92.590
45.500000 92.524
46.200001 92.480
46.799999 92.473
47.500000 92.496
48.200001 92.522
48.700001 92.504
49.400002 92.410
50.000000 92.320
50.799999 92.279
51.500000 92.292
52.200001 92.293
53.000000 92.288
53.799999 92.303
54.500000 92.318
55.200001 92.326
56.000000 92.321
57.000000 92.293
58.000000 92.259
59.000000 92.233
60.000000 92.206
60.799999 92.188
61.500000 92.182
62.200001 92.179
63.000000 92.157
64.000000 92.113
65.000000 92.080
66.000000 92.055
67.000000 92.035
68.000000 92.010
69.000000 91.970
70.000000 91.929
71.000000 91.902
72.000000 91.885
73.000000 91.868
74.000000 91.851
75.000000 91.828
76.199997 91.794
77.500000 91.758
78.800003 91.719
80.000000 91.680
81.199997 91.651
82.500000 91.619
83.800003 91.582
85.000000 91.550
86.199997 91.517
87.500000 91.472
88.500000 91.439
90.000000 91.393
91.199997 91.353
92.500000 91.310
93.800003 91.277
95.000000 91.248
96.199997 91.212
97.500000 91.170
98.800003 91.130
100.000000 91.093
101.500000 91.049
103.000000 91.006
104.400002 90.963
106.000000 90.911
107.500000 90.866
109.000000 90.821
110.599998 90.767
112.000000 90.722
113.800003 90.670
115.000000 90.636
117.199997 90.571
118.000000 90.545
120.599998 90.459
122.000000 90.414
124.099998 90.349
125.000000 90.321
126.500000 90.277
128.000000 90.235
131.500000 90.141
132.000000 90.127
134.000000 90.066
136.000000 89.991
138.000000 89.917
140.000000 89.853
143.000000 89.759
145.000000 89.692
147.500000 89.618
150.000000 89.544
152.500000 89.454
155.000000 89.363
157.500000 89.273
160.000000 89.181
162.500000 89.089
165.000000 88.994
167.500000 88.896
170.000000 88.794
172.500000 88.687
175.000000 88.582
177.500000 88.486
180.000000 88.415
182.500000 88.383
185.000000 88.388
187.500000 88.422
190.000000 88.462
192.500000 88.493
195.000000 88.507
197.500000 88.501
200.000000 88.477
203.000000 88.429
206.000000 88.369
209.000000 88.301
212.000000 88.227
214.000000 88.175
218.000000 88.075
220.000000 88.028
224.000000 87.934
227.000000 87.862
230.000000 87.793
233.000000 87.725
236.000000 87.655
240.000000 87.563
243.000000 87.498
247.000000 87.410
250.000000 87.346
254.000000 87.272
258.000000 87.195
262.000000 87.113
265.000000 87.052
269.000000 86.975
272.000000 86.921
276.000000 86.849
280.000000 86.775
285.000000 86.683
290.000000 86.598
295.000000 86.518
300.000000 86.437
304.000000 86.373
307.000000 86.325
311.000000 86.261
315.000000 86.197
320.000000 86.116
325.000000 86.040
330.000000 85.971
335.000000 85.907
340.000000 85.847
345.000000 85.796
350.000000 85.758
355.000000 85.732
360.000000 85.712
365.000000 85.693
370.000000 85.669
375.000000 85.641
382.000000 85.598
387.000000 85.561
395.000000 85.493
400.000000 85.447
406.000000 85.392
412.000000 85.337
418.000000 85.285
425.000000 85.226
431.000000 85.172
437.000000 85.118
444.000000 85.064
450.000000 85.023
455.000000 84.989
462.000000 84.944
468.000000 84.905
475.000000 84.861
482.000000 84.826
487.000000 84.802
494.000000 84.769
500.000000 84.743
508.000000 84.712
515.000000 84.687
522.000000 84.666
530.000000 84.641
538.000000 84.616
545.000000 84.597
552.000000 84.579
560.000000 84.553
570.000000 84.527
580.000000 84.505
590.000000 84.488
600.000000 84.471
608.000000 84.457
615.000000 84.446
622.000000 84.436
630.000000 84.427
640.000000 84.421
650.000000 84.418
660.000000 84.412
670.000000 84.407
680.000000 84.406
690.000000 84.407
700.000000 84.413
710.000000 84.420
720.000000 84.430
730.000000 84.445
740.000000 84.464
750.000000 84.486
762.000000 84.514
775.000000 84.545
788.000000 84.581
800.000000 84.623
812.000000 84.671
825.000000 84.725
838.000000 84.779
850.000000 84.836
862.000000 84.903
875.000000 84.979
885.000000 85.039
900.000000 85.133
912.000000 85.213
925.000000 85.304
938.000000 85.398
950.000000 85.487
962.000000 85.578
975.000000 85.683
988.000000 85.790
1000.000000 85.890
1015.000000 86.015
1030.000000 86.144
1044.000000 86.267
1060.000000 86.407
1075.000000 86.539
1090.000000 86.671
1106.000000 86.811
1120.000000 86.934
1138.000000 87.095
1150.000000 87.201
1172.000000 87.389
1180.000000 87.456
1206.000000 87.670
1220.000000 87.779
1241.000000 87.935
1250.000000 88.000
1265.000000 88.103
1280.000000 88.201
1315.000000 88.408
1320.000000 88.435
1340.000000 88.539
1360.000000 88.635
1380.000000 88.726
1400.000000 88.812
1430.000000 88.934
1450.000000 89.010
1475.000000 89.101
1500.000000 89.190
1525.000000 89.278
1550.000000 89.365
1575.000000 89.453
1600.000000 89.543
1625.000000 89.634
1650.000000 89.725
1675.000000 89.817
1700.000000 89.912
1725.000000 90.010
1750.000000 90.110
1775.000000 90.212
1800.000000 90.315
1825.000000 90.421
1850.000000 90.529
1875.000000 90.640
1900.000000 90.753
1925.000000 90.868
1950.000000 90.986
1975.000000 91.106
2000.000000 91.228
2030.000000 91.377
2060.000000 91.528
2090.000000 91.680
2120.000000 91.834
2140.000000 91.937
2180.000000 92.145
2200.000000 92.250
2240.000000 92.459
2270.000000 92.615
2300.000000 92.770
2330.000000 92.924
2360.000000 93.075
2400.000000 93.273
2430.000000 93.419
2470.000000 93.612
2500.000000 93.761
2540.000000 93.973
2580.000000 94.204
2620.000000 94.443
2650.000000 94.614
2690.000000 94.817
2720.000000 94.946
2760.000000 95.089
2800.000000 95.204
2850.000000 95.315
2900.000000 95.394
2950.000000 95.443
3000.000000 95.463
3040.000000 95.459
3070.000000 95.445
3110.000000 95.413
3150.000000 95.364
3200.000000 95.282
3250.000000 95.174
3300.000000 95.040
3350.000000 94.883
3400.000000 94.713
3450.000000 94.543
3500.000000 94.381
3550.000000 94.231
3600.000000 94.090
3650.000000 93.958
3700.000000 93.831
3750.000000 93.709
3820.000000 93.547
3870.000000 93.438
3950.000000 93.277
4000.000000 93.183
4060.000000 93.080
4120.000000 92.985
4180.000000 92.897
4250.000000 92.803
4310.000000 92.731
4370.000000 92.671
4440.000000 92.618
4500.000000 92.588
4550.000000 92.574
4620.000000 92.570
4680.000000 92.582
4750.000000 92.613
4820.000000 92.658
4870.000000 92.699
4940.000000 92.763
5000.000000 92.823
5080.000000 92.908
5150.000000 92.984
5220.000000 93.062
5300.000000 93.159
5380.000000 93.271
5450.000000 93.390
5520.000000 93.534
5600.000000 93.733
5700.000000 94.025
5800.000000 94.321
5900.000000 94.535
6000.000000 94.562
6080.000000 94.399
6150.000000 94.122
6220.000000 93.745
6300.000000 93.241
6400.000000 92.595
6500.000000 92.023
6600.000000 91.576
6700.000000 91.270
6800.000000 91.096
6900.000000 91.042
7000.000000 91.093
7100.000000 91.239
7200.000000 91.472
7300.000000 91.783
7400.000000 92.162
7500.000000 92.588
7620.000000 93.157
7750.000000 93.881
7880.000000 94.677
8000.000000 95.407
8120.000000 96.053
8250.000000 96.546
8380.000000 96.714
8500.000000 96.532
8620.000000 96.048
8750.000000 95.265
8850.000000 94.550
9000.000000 93.413
9120.000000 92.548
9250.000000 91.792
9380.000000 91.281
9500.000000 90.909
9620.000000 90.519
9750.000000 90.065
9880.000000 89.609
10000.000000 89.200
10150.000000 88.694
10300.000000 88.169
10440.000000 87.645
10600.000000 87.004
10750.000000 86.376
10900.000000 85.744
11060.000000 85.096
11200.000000 84.569
11380.000000 83.967
11500.000000 83.619
11720.000000 83.087
11800.000000 82.921
12060.000000 82.429
12200.000000 82.166
12410.000000 81.772
12500.000000 81.619
12650.000000 81.393
12800.000000 81.183
13150.000000 80.603
13200.000000 80.503
13400.000000 80.072
13600.000000 79.623
13800.000000 79.206
14000.000000 78.879
14300.000000 78.712
14500.000000 78.881
14750.000000 79.394
15000.000000 80.140
15250.000000 80.917
15500.000000 81.495
15750.000000 81.755
16000.000000 81.698
16250.000000 81.431
16500.000000 81.105
16750.000000 80.843
17000.000000 80.722
17250.000000 80.780
17500.000000 81.029
17750.000000 81.421
18000.000000 81.827
18250.000000 82.052
18500.000000 81.895
18750.000000 81.288
19000.000000 80.383
19250.000000 79.401
19500.000000 78.337
19750.000000 77.086
