* Measurement data measured by REW V5.20.9
* Source: Frequency Response Averaged data
* Format: Averaged data produced from the rms magnitudes of Blessing 2 Jul 11, Blessing 2 Jul 11, Blessing 2 Jul 11
* Dated: 11/07/2022 9:48:49 PM
* REW Settings:
*  C-weighting compensation: Off
*  Target level: 75.0 dB
* Note: ; Averaged data produced from the rms magnitudes of Blessing 2 Jul 11, Blessing 2 Jul 11, Blessing 2 Jul 11
* Measurement: Blessing 2 R
* Smoothing: 1/24 octave
* Frequency Step: 1/48 octave
* Start Frequency: 2.200 Hz
*
* Freq(Hz) SPL(dB)
2.200000 79.433
2.240000 79.609
2.270000 79.742
2.300000 79.874
2.330000 80.007
2.360000 80.139
2.400000 80.315
2.430000 80.448
2.470000 80.624
2.500000 80.757
2.540000 80.933
2.580000 81.117
2.620000 81.321
2.650000 81.480
2.690000 81.697
2.720000 81.862
2.760000 82.082
2.800000 82.298
2.850000 82.557
2.900000 82.795
2.950000 83.007
3.000000 83.195
3.040000 83.333
3.070000 83.430
3.110000 83.553
3.150000 83.670
3.200000 83.812
3.250000 83.954
3.300000 84.099
3.350000 84.245
3.400000 84.388
3.450000 84.529
3.500000 84.666
3.550000 84.800
3.600000 84.929
3.650000 85.054
3.700000 85.174
3.750000 85.290
3.820000 85.443
3.870000 85.549
3.950000 85.712
4.000000 85.812
4.060000 85.930
4.120000 86.044
4.180000 86.154
4.250000 86.279
4.310000 86.383
4.370000 86.486
4.440000 86.604
4.500000 86.703
4.550000 86.784
4.620000 86.895
4.680000 86.988
4.750000 87.093
4.820000 87.196
4.870000 87.268
4.940000 87.366
5.000000 87.448
5.080000 87.554
5.150000 87.646
5.220000 87.736
5.300000 87.836
5.380000 87.933
5.450000 88.016
5.520000 88.097
5.600000 88.186
5.700000 88.294
5.800000 88.399
5.900000 88.500
6.000000 88.598
6.080000 88.675
6.150000 88.740
6.220000 88.804
6.300000 88.876
6.400000 88.963
6.500000 89.048
6.600000 89.131
6.700000 89.212
6.800000 89.291
6.900000 89.367
7.000000 89.442
7.100000 89.515
7.200000 89.586
7.300000 89.655
7.400000 89.721
7.500000 89.786
7.620000 89.862
7.750000 89.940
7.880000 90.016
8.000000 90.084
8.120000 90.150
8.250000 90.218
8.380000 90.285
8.500000 90.344
8.620000 90.402
8.750000 90.462
8.850000 90.507
9.000000 90.571
9.120000 90.619
9.250000 90.668
9.380000 90.714
9.500000 90.753
9.620000 90.789
9.750000 90.824
9.880000 90.856
10.000000 90.883
10.150000 90.912
10.300000 90.941
10.440000 90.965
10.600000 90.993
10.750000 91.021
10.900000 91.051
11.060000 91.087
11.200000 91.122
11.380000 91.171
11.500000 91.207
11.720000 91.276
11.800000 91.301
12.060000 91.383
12.200000 91.423
12.410000 91.478
12.500000 91.498
12.650000 91.527
12.800000 91.551
13.150000 91.586
13.200000 91.590
13.400000 91.600
13.600000 91.611
13.800000 91.624
14.000000 91.644
14.300000 91.687
14.500000 91.725
14.750000 91.776
15.000000 91.827
15.250000 91.868
15.500000 91.894
15.750000 91.906
16.000000 91.903
16.250000 91.895
16.500000 91.888
16.750000 91.889
17.000000 91.903
17.250000 91.931
17.500000 91.969
17.750000 92.009
18.000000 92.047
18.250000 92.078
18.500000 92.099
18.750000 92.111
19.000000 92.117
19.250000 92.120
19.500000 92.123
19.750000 92.127
20.000000 92.132
20.299999 92.138
20.600000 92.143
20.900000 92.146
21.200001 92.148
21.400000 92.150
21.799999 92.157
22.000000 92.162
22.400000 92.173
22.700001 92.178
23.000000 92.182
23.299999 92.183
23.600000 92.185
24.000000 92.193
24.299999 92.202
24.700001 92.214
25.000000 92.219
25.400000 92.221
25.799999 92.220
26.200001 92.226
26.500000 92.238
26.900000 92.262
27.200001 92.279
27.600000 92.287
28.000000 92.273
28.500000 92.229
29.000000 92.184
29.500000 92.166
30.000000 92.182
30.400000 92.209
30.700001 92.229
31.100000 92.249
31.500000 92.256
32.000000 92.248
32.500000 92.231
33.000000 92.219
33.500000 92.219
34.000000 92.227
34.500000 92.231
35.000000 92.224
35.500000 92.208
36.000000 92.191
36.500000 92.179
37.000000 92.173
37.500000 92.170
38.200001 92.161
38.700001 92.151
39.500000 92.134
40.000000 92.129
40.599998 92.125
41.200001 92.119
41.799999 92.111
42.500000 92.099
43.099998 92.091
43.700001 92.084
44.400002 92.074
45.000000 92.062
45.500000 92.052
46.200001 92.044
46.799999 92.046
47.500000 92.048
48.200001 92.041
48.700001 92.034
49.400002 92.031
50.000000 92.036
50.799999 92.037
51.500000 92.020
52.200001 91.986
53.000000 91.946
53.799999 91.921
54.500000 91.911
55.200001 91.905
56.000000 91.896
57.000000 91.880
58.000000 91.858
59.000000 91.833
60.000000 91.814
60.799999 91.802
61.500000 91.789
62.200001 91.772
63.000000 91.749
64.000000 91.725
65.000000 91.706
66.000000 91.678
67.000000 91.634
68.000000 91.592
69.000000 91.562
70.000000 91.539
71.000000 91.516
72.000000 91.492
73.000000 91.470
74.000000 91.448
75.000000 91.425
76.199997 91.389
77.500000 91.346
78.800003 91.307
80.000000 91.277
81.199997 91.249
82.500000 91.217
83.800003 91.186
85.000000 91.157
86.199997 91.125
87.500000 91.088
88.500000 91.061
90.000000 91.023
91.199997 90.992
92.500000 90.959
93.800003 90.924
95.000000 90.891
96.199997 90.858
97.500000 90.822
98.800003 90.785
100.000000 90.752
101.500000 90.713
103.000000 90.672
104.400002 90.632
106.000000 90.585
107.500000 90.541
109.000000 90.498
110.599998 90.453
112.000000 90.414
113.800003 90.364
115.000000 90.330
117.199997 90.264
118.000000 90.239
120.599998 90.161
122.000000 90.121
124.099998 90.063
125.000000 90.039
126.500000 89.995
128.000000 89.947
131.500000 89.834
132.000000 89.818
134.000000 89.756
136.000000 89.697
138.000000 89.645
140.000000 89.597
143.000000 89.514
145.000000 89.448
147.500000 89.361
150.000000 89.279
152.500000 89.215
155.000000 89.156
157.500000 89.088
160.000000 89.012
162.500000 88.936
165.000000 88.860
167.500000 88.782
170.000000 88.704
172.500000 88.626
175.000000 88.546
177.500000 88.462
180.000000 88.374
182.500000 88.284
185.000000 88.189
187.500000 88.090
190.000000 87.986
192.500000 87.880
195.000000 87.778
197.500000 87.694
200.000000 87.643
203.000000 87.639
206.000000 87.690
209.000000 87.763
212.000000 87.826
214.000000 87.851
218.000000 87.855
220.000000 87.839
224.000000 87.782
227.000000 87.729
230.000000 87.669
233.000000 87.606
236.000000 87.541
240.000000 87.453
243.000000 87.385
247.000000 87.295
250.000000 87.234
254.000000 87.160
258.000000 87.089
262.000000 87.017
265.000000 86.961
269.000000 86.887
272.000000 86.832
276.000000 86.761
280.000000 86.694
285.000000 86.611
290.000000 86.529
295.000000 86.449
300.000000 86.372
304.000000 86.313
307.000000 86.269
311.000000 86.213
315.000000 86.158
320.000000 86.089
325.000000 86.022
330.000000 85.959
335.000000 85.898
340.000000 85.840
345.000000 85.782
350.000000 85.724
355.000000 85.667
360.000000 85.614
365.000000 85.562
370.000000 85.512
375.000000 85.463
382.000000 85.397
387.000000 85.352
395.000000 85.282
400.000000 85.240
406.000000 85.193
412.000000 85.147
418.000000 85.102
425.000000 85.050
431.000000 85.008
437.000000 84.968
444.000000 84.924
450.000000 84.887
455.000000 84.855
462.000000 84.811
468.000000 84.776
475.000000 84.739
482.000000 84.706
487.000000 84.684
494.000000 84.654
500.000000 84.631
508.000000 84.605
515.000000 84.587
522.000000 84.571
530.000000 84.553
538.000000 84.534
545.000000 84.516
552.000000 84.496
560.000000 84.474
570.000000 84.446
580.000000 84.420
590.000000 84.394
600.000000 84.370
608.000000 84.354
615.000000 84.342
622.000000 84.331
630.000000 84.319
640.000000 84.307
650.000000 84.297
660.000000 84.289
670.000000 84.283
680.000000 84.279
690.000000 84.279
700.000000 84.280
710.000000 84.284
720.000000 84.291
730.000000 84.299
740.000000 84.310
750.000000 84.324
762.000000 84.346
775.000000 84.376
788.000000 84.409
800.000000 84.443
812.000000 84.483
825.000000 84.533
838.000000 84.590
850.000000 84.646
862.000000 84.707
875.000000 84.778
885.000000 84.838
900.000000 84.938
912.000000 85.026
925.000000 85.130
938.000000 85.244
950.000000 85.355
962.000000 85.474
975.000000 85.611
988.000000 85.758
1000.000000 85.902
1015.000000 86.091
1030.000000 86.287
1044.000000 86.474
1060.000000 86.686
1075.000000 86.882
1090.000000 87.071
1106.000000 87.263
1120.000000 87.421
1138.000000 87.608
1150.000000 87.723
1172.000000 87.915
1180.000000 87.980
1206.000000 88.171
1220.000000 88.263
1241.000000 88.388
1250.000000 88.437
1265.000000 88.516
1280.000000 88.590
1315.000000 88.748
1320.000000 88.769
1340.000000 88.851
1360.000000 88.928
1380.000000 89.002
1400.000000 89.074
1430.000000 89.179
1450.000000 89.248
1475.000000 89.332
1500.000000 89.416
1525.000000 89.501
1550.000000 89.587
1575.000000 89.675
1600.000000 89.765
1625.000000 89.857
1650.000000 89.952
1675.000000 90.048
1700.000000 90.145
1725.000000 90.246
1750.000000 90.349
1775.000000 90.454
1800.000000 90.562
1825.000000 90.672
1850.000000 90.785
1875.000000 90.901
1900.000000 91.019
1925.000000 91.139
1950.000000 91.262
1975.000000 91.386
2000.000000 91.512
2030.000000 91.665
2060.000000 91.821
2090.000000 91.978
2120.000000 92.136
2140.000000 92.242
2180.000000 92.455
2200.000000 92.561
2240.000000 92.772
2270.000000 92.928
2300.000000 93.082
2330.000000 93.232
2360.000000 93.378
2400.000000 93.567
2430.000000 93.705
2470.000000 93.887
2500.000000 94.028
2540.000000 94.229
2580.000000 94.448
2620.000000 94.671
2650.000000 94.826
2690.000000 95.003
2720.000000 95.109
2760.000000 95.218
2800.000000 95.294
2850.000000 95.352
2900.000000 95.375
2950.000000 95.367
3000.000000 95.331
3040.000000 95.285
3070.000000 95.241
3110.000000 95.170
3150.000000 95.089
3200.000000 94.973
3250.000000 94.844
3300.000000 94.706
3350.000000 94.557
3400.000000 94.400
3450.000000 94.230
3500.000000 94.047
3550.000000 93.849
3600.000000 93.641
3650.000000 93.437
3700.000000 93.251
3750.000000 93.091
3820.000000 92.910
3870.000000 92.803
3950.000000 92.658
4000.000000 92.579
4060.000000 92.493
4120.000000 92.417
4180.000000 92.351
4250.000000 92.286
4310.000000 92.240
4370.000000 92.203
4440.000000 92.171
4500.000000 92.152
4550.000000 92.141
4620.000000 92.134
4680.000000 92.135
4750.000000 92.147
4820.000000 92.174
4870.000000 92.202
4940.000000 92.254
5000.000000 92.308
5080.000000 92.394
5150.000000 92.482
5220.000000 92.583
5300.000000 92.718
5380.000000 92.879
5450.000000 93.046
5520.000000 93.238
5600.000000 93.476
5700.000000 93.761
5800.000000 93.945
5900.000000 93.927
6000.000000 93.649
6080.000000 93.252
6150.000000 92.814
6220.000000 92.334
6300.000000 91.783
6400.000000 91.154
6500.000000 90.634
6600.000000 90.239
6700.000000 89.969
6800.000000 89.819
6900.000000 89.780
7000.000000 89.842
7100.000000 89.997
7200.000000 90.236
7300.000000 90.552
7400.000000 90.941
7500.000000 91.398
7620.000000 92.028
7750.000000 92.791
7880.000000 93.604
8000.000000 94.343
8120.000000 94.999
8250.000000 95.521
8380.000000 95.755
8500.000000 95.671
8620.000000 95.315
8750.000000 94.708
8850.000000 94.167
9000.000000 93.348
9120.000000 92.706
9250.000000 92.011
9380.000000 91.326
9500.000000 90.728
9620.000000 90.178
9750.000000 89.640
9880.000000 89.153
10000.000000 88.731
10150.000000 88.218
10300.000000 87.690
10440.000000 87.167
10600.000000 86.526
10750.000000 85.892
10900.000000 85.244
11060.000000 84.564
11200.000000 83.997
11380.000000 83.329
11500.000000 82.927
11720.000000 82.282
11800.000000 82.074
12060.000000 81.486
12200.000000 81.221
12410.000000 80.882
12500.000000 80.752
12650.000000 80.548
12800.000000 80.351
13150.000000 79.862
13200.000000 79.785
13400.000000 79.455
13600.000000 79.092
13800.000000 78.712
14000.000000 78.350
14300.000000 77.980
14500.000000 77.932
14750.000000 78.118
15000.000000 78.475
15250.000000 78.823
15500.000000 79.003
15750.000000 78.943
16000.000000 78.675
16250.000000 78.303
16500.000000 77.946
16750.000000 77.718
17000.000000 77.712
17250.000000 77.980
17500.000000 78.521
17750.000000 79.270
18000.000000 80.075
18250.000000 80.747
18500.000000 81.132
18750.000000 81.120
19000.000000 80.655
19250.000000 79.757
19500.000000 78.541
19750.000000 77.279
