* Measurement data measured by REW V5.20.9
* Source: Frequency Response Averaged data
* Format: Averaged data produced from the rms magnitudes of Final A4000 - L Jul 13, Chu Jul 13, Chu Jul 13
* Dated: 13/07/2022 7:56:31 PM
* REW Settings:
*  C-weighting compensation: Off
*  Target level: 75.0 dB
* Note: ; Averaged data produced from the rms magnitudes of Final A4000 - L Jul 13, Chu Jul 13, Chu Jul 13
* Measurement: Chu R
* Smoothing: 1/24 octave
* Frequency Step: 1/48 octave
* Start Frequency: 2.200 Hz
*
* Freq(Hz) SPL(dB)
2.200000 72.293
2.240000 72.498
2.270000 72.651
2.300000 72.805
2.330000 72.958
2.360000 73.111
2.400000 73.316
2.430000 73.469
2.470000 73.674
2.500000 73.827
2.540000 74.032
2.580000 74.244
2.620000 74.476
2.650000 74.656
2.690000 74.902
2.720000 75.089
2.760000 75.337
2.800000 75.582
2.850000 75.877
2.900000 76.151
2.950000 76.400
3.000000 76.624
3.040000 76.791
3.070000 76.909
3.110000 77.061
3.150000 77.208
3.200000 77.388
3.250000 77.571
3.300000 77.759
3.350000 77.951
3.400000 78.142
3.450000 78.333
3.500000 78.521
3.550000 78.708
3.600000 78.892
3.650000 79.073
3.700000 79.251
3.750000 79.426
3.820000 79.667
3.870000 79.836
3.950000 80.102
4.000000 80.264
4.060000 80.457
4.120000 80.646
4.180000 80.833
4.250000 81.046
4.310000 81.223
4.370000 81.395
4.440000 81.589
4.500000 81.751
4.550000 81.882
4.620000 82.059
4.680000 82.205
4.750000 82.367
4.820000 82.520
4.870000 82.624
4.940000 82.763
5.000000 82.875
5.080000 83.017
5.150000 83.133
5.220000 83.241
5.300000 83.354
5.380000 83.460
5.450000 83.547
5.520000 83.630
5.600000 83.716
5.700000 83.815
5.800000 83.909
5.900000 84.003
6.000000 84.093
6.080000 84.164
6.150000 84.228
6.220000 84.295
6.300000 84.376
6.400000 84.480
6.500000 84.591
6.600000 84.708
6.700000 84.835
6.800000 84.969
6.900000 85.107
7.000000 85.248
7.100000 85.395
7.200000 85.545
7.300000 85.692
7.400000 85.837
7.500000 85.980
7.620000 86.148
7.750000 86.318
7.880000 86.478
8.000000 86.618
8.120000 86.748
8.250000 86.878
8.380000 86.999
8.500000 87.106
8.620000 87.206
8.750000 87.311
8.850000 87.392
9.000000 87.510
9.120000 87.604
9.250000 87.708
9.380000 87.813
9.500000 87.909
9.620000 88.005
9.750000 88.109
9.880000 88.209
10.000000 88.298
10.150000 88.404
10.300000 88.501
10.440000 88.583
10.600000 88.668
10.750000 88.737
10.900000 88.797
11.060000 88.856
11.200000 88.902
11.380000 88.958
11.500000 88.995
11.720000 89.063
11.800000 89.090
12.060000 89.179
12.200000 89.231
12.410000 89.311
12.500000 89.345
12.650000 89.403
12.800000 89.458
13.150000 89.576
13.200000 89.591
13.400000 89.647
13.600000 89.698
13.800000 89.743
14.000000 89.786
14.300000 89.848
14.500000 89.891
14.750000 89.950
15.000000 90.012
15.250000 90.078
15.500000 90.142
15.750000 90.201
16.000000 90.252
16.250000 90.293
16.500000 90.324
16.750000 90.347
17.000000 90.368
17.250000 90.392
17.500000 90.424
17.750000 90.466
18.000000 90.514
18.250000 90.565
18.500000 90.608
18.750000 90.639
19.000000 90.652
19.250000 90.647
19.500000 90.632
19.750000 90.612
20.000000 90.603
20.299999 90.617
20.600000 90.662
20.900000 90.733
21.200001 90.813
21.400000 90.858
21.799999 90.913
22.000000 90.919
22.400000 90.888
22.700001 90.842
23.000000 90.797
23.299999 90.768
23.600000 90.768
24.000000 90.816
24.299999 90.880
24.700001 90.974
25.000000 91.027
25.400000 91.046
25.799999 91.002
26.200001 90.930
26.500000 90.893
26.900000 90.906
27.200001 90.965
27.600000 91.073
28.000000 91.153
28.500000 91.145
29.000000 91.031
29.500000 90.893
30.000000 90.805
30.400000 90.783
30.700001 90.796
31.100000 90.863
31.500000 90.997
32.000000 91.237
32.500000 91.467
33.000000 91.580
33.500000 91.545
34.000000 91.420
34.500000 91.296
35.000000 91.220
35.500000 91.182
36.000000 91.158
36.500000 91.137
37.000000 91.108
37.500000 91.053
38.200001 90.923
38.700001 90.823
39.500000 90.722
40.000000 90.687
40.599998 90.647
41.200001 90.606
41.799999 90.566
42.500000 90.503
43.099998 90.424
43.700001 90.342
44.400002 90.278
45.000000 90.256
45.500000 90.251
46.200001 90.253
46.799999 90.251
47.500000 90.221
48.200001 90.160
48.700001 90.123
49.400002 90.113
50.000000 90.133
50.799999 90.135
51.500000 90.085
52.200001 90.015
53.000000 89.942
53.799999 89.876
54.500000 89.826
55.200001 89.785
56.000000 89.744
57.000000 89.690
58.000000 89.643
59.000000 89.599
60.000000 89.540
60.799999 89.488
61.500000 89.447
62.200001 89.414
63.000000 89.374
64.000000 89.312
65.000000 89.247
66.000000 89.195
67.000000 89.146
68.000000 89.088
69.000000 89.019
70.000000 88.946
71.000000 88.877
72.000000 88.813
73.000000 88.747
74.000000 88.676
75.000000 88.605
76.199997 88.532
77.500000 88.470
78.800003 88.416
80.000000 88.362
81.199997 88.301
82.500000 88.224
83.800003 88.114
85.000000 87.971
86.199997 87.830
87.500000 87.702
88.500000 87.578
90.000000 87.330
91.199997 87.164
92.500000 87.138
93.800003 87.288
95.000000 87.545
96.199997 87.987
97.500000 88.710
98.800003 89.402
100.000000 89.635
101.500000 89.216
103.000000 88.407
104.400002 87.807
106.000000 87.500
107.500000 87.426
109.000000 87.380
110.599998 87.274
112.000000 87.123
113.800003 86.919
115.000000 86.826
117.199997 86.740
118.000000 86.721
120.599998 86.722
122.000000 86.792
124.099998 86.995
125.000000 87.101
126.500000 87.271
128.000000 87.405
131.500000 87.485
132.000000 87.471
134.000000 87.374
136.000000 87.252
138.000000 87.144
140.000000 87.057
143.000000 86.951
145.000000 86.884
147.500000 86.796
150.000000 86.713
152.500000 86.639
155.000000 86.571
157.500000 86.506
160.000000 86.440
162.500000 86.372
165.000000 86.307
167.500000 86.248
170.000000 86.192
172.500000 86.138
175.000000 86.084
177.500000 86.034
180.000000 85.985
182.500000 85.937
185.000000 85.888
187.500000 85.841
190.000000 85.795
192.500000 85.750
195.000000 85.707
197.500000 85.664
200.000000 85.622
203.000000 85.574
206.000000 85.527
209.000000 85.482
212.000000 85.439
214.000000 85.412
218.000000 85.358
220.000000 85.332
224.000000 85.280
227.000000 85.245
230.000000 85.211
233.000000 85.179
236.000000 85.149
240.000000 85.110
243.000000 85.080
247.000000 85.038
250.000000 85.007
254.000000 84.970
258.000000 84.936
262.000000 84.900
265.000000 84.873
269.000000 84.837
272.000000 84.810
276.000000 84.776
280.000000 84.742
285.000000 84.702
290.000000 84.665
295.000000 84.631
300.000000 84.600
304.000000 84.577
307.000000 84.561
311.000000 84.540
315.000000 84.520
320.000000 84.494
325.000000 84.469
330.000000 84.443
335.000000 84.417
340.000000 84.391
345.000000 84.365
350.000000 84.341
355.000000 84.320
360.000000 84.301
365.000000 84.281
370.000000 84.261
375.000000 84.242
382.000000 84.217
387.000000 84.200
395.000000 84.172
400.000000 84.156
406.000000 84.138
412.000000 84.121
418.000000 84.105
425.000000 84.088
431.000000 84.073
437.000000 84.059
444.000000 84.042
450.000000 84.028
455.000000 84.017
462.000000 84.004
468.000000 83.993
475.000000 83.982
482.000000 83.972
487.000000 83.965
494.000000 83.956
500.000000 83.949
508.000000 83.939
515.000000 83.931
522.000000 83.924
530.000000 83.916
538.000000 83.909
545.000000 83.903
552.000000 83.899
560.000000 83.897
570.000000 83.897
580.000000 83.896
590.000000 83.897
600.000000 83.899
608.000000 83.901
615.000000 83.905
622.000000 83.909
630.000000 83.915
640.000000 83.923
650.000000 83.934
660.000000 83.945
670.000000 83.958
680.000000 83.975
690.000000 83.994
700.000000 84.015
710.000000 84.038
720.000000 84.064
730.000000 84.092
740.000000 84.121
750.000000 84.152
762.000000 84.195
775.000000 84.248
788.000000 84.304
800.000000 84.360
812.000000 84.421
825.000000 84.492
838.000000 84.569
850.000000 84.643
862.000000 84.721
875.000000 84.811
885.000000 84.884
900.000000 85.000
912.000000 85.097
925.000000 85.205
938.000000 85.316
950.000000 85.422
962.000000 85.532
975.000000 85.654
988.000000 85.780
1000.000000 85.900
1015.000000 86.053
1030.000000 86.212
1044.000000 86.365
1060.000000 86.532
1075.000000 86.653
1090.000000 86.695
1106.000000 86.627
1120.000000 86.512
1138.000000 86.405
1150.000000 86.401
1172.000000 86.503
1180.000000 86.557
1206.000000 86.744
1220.000000 86.841
1241.000000 86.977
1250.000000 87.032
1265.000000 87.120
1280.000000 87.205
1315.000000 87.390
1320.000000 87.415
1340.000000 87.514
1360.000000 87.608
1380.000000 87.700
1400.000000 87.790
1430.000000 87.921
1450.000000 88.008
1475.000000 88.114
1500.000000 88.220
1525.000000 88.325
1550.000000 88.431
1575.000000 88.537
1600.000000 88.645
1625.000000 88.753
1650.000000 88.863
1675.000000 88.974
1700.000000 89.087
1725.000000 89.202
1750.000000 89.317
1775.000000 89.433
1800.000000 89.549
1825.000000 89.665
1850.000000 89.781
1875.000000 89.896
1900.000000 90.012
1925.000000 90.127
1950.000000 90.242
1975.000000 90.357
2000.000000 90.472
2030.000000 90.609
2060.000000 90.745
2090.000000 90.880
2120.000000 91.013
2140.000000 91.100
2180.000000 91.273
2200.000000 91.358
2240.000000 91.526
2270.000000 91.648
2300.000000 91.768
2330.000000 91.885
2360.000000 91.998
2400.000000 92.144
2430.000000 92.248
2470.000000 92.381
2500.000000 92.475
2540.000000 92.594
2580.000000 92.703
2620.000000 92.804
2650.000000 92.872
2690.000000 92.955
2720.000000 93.010
2760.000000 93.074
2800.000000 93.126
2850.000000 93.175
2900.000000 93.207
2950.000000 93.224
3000.000000 93.234
3040.000000 93.240
3070.000000 93.244
3110.000000 93.252
3150.000000 93.261
3200.000000 93.271
3250.000000 93.273
3300.000000 93.263
3350.000000 93.240
3400.000000 93.205
3450.000000 93.161
3500.000000 93.108
3550.000000 93.049
3600.000000 92.984
3650.000000 92.916
3700.000000 92.845
3750.000000 92.773
3820.000000 92.675
3870.000000 92.607
3950.000000 92.507
4000.000000 92.450
4060.000000 92.386
4120.000000 92.325
4180.000000 92.267
4250.000000 92.205
4310.000000 92.157
4370.000000 92.114
4440.000000 92.069
4500.000000 92.038
4550.000000 92.016
4620.000000 91.992
4680.000000 91.975
4750.000000 91.959
4820.000000 91.948
4870.000000 91.943
4940.000000 91.939
5000.000000 91.938
5080.000000 91.942
5150.000000 91.950
5220.000000 91.960
5300.000000 91.973
5380.000000 91.987
5450.000000 91.999
5520.000000 92.010
5600.000000 92.020
5700.000000 92.026
5800.000000 92.027
5900.000000 92.025
6000.000000 92.020
6080.000000 92.013
6150.000000 92.006
6220.000000 91.999
6300.000000 91.996
6400.000000 92.009
6500.000000 92.040
6600.000000 92.081
6700.000000 92.133
6800.000000 92.200
6900.000000 92.293
7000.000000 92.418
7100.000000 92.573
7200.000000 92.752
7300.000000 92.940
7400.000000 93.125
7500.000000 93.289
7620.000000 93.428
7750.000000 93.454
7880.000000 93.295
8000.000000 92.950
8120.000000 92.405
8250.000000 91.609
8380.000000 90.644
8500.000000 89.656
8620.000000 88.620
8750.000000 87.489
8850.000000 86.634
9000.000000 85.400
9120.000000 84.466
9250.000000 83.512
9380.000000 82.616
9500.000000 81.835
9620.000000 81.093
9750.000000 80.326
9880.000000 79.589
10000.000000 78.927
10150.000000 78.119
10300.000000 77.336
10440.000000 76.646
10600.000000 75.960
10750.000000 75.516
10900.000000 75.398
11060.000000 75.756
11200.000000 76.461
11380.000000 77.651
11500.000000 78.437
11720.000000 79.574
11800.000000 79.865
12060.000000 80.451
12200.000000 80.631
12410.000000 80.880
12500.000000 81.009
12650.000000 81.285
12800.000000 81.655
13150.000000 82.991
13200.000000 83.244
13400.000000 84.426
13600.000000 85.872
13800.000000 87.487
14000.000000 89.050
14300.000000 90.628
14500.000000 90.834
14750.000000 90.090
15000.000000 88.571
15250.000000 86.799
15500.000000 85.148
15750.000000 83.697
16000.000000 82.345
16250.000000 80.964
16500.000000 79.469
16750.000000 77.844
17000.000000 76.136
17250.000000 74.420
17500.000000 72.772
17750.000000 71.248
18000.000000 69.882
18250.000000 68.687
18500.000000 67.661
18750.000000 66.786
19000.000000 66.018
19250.000000 65.295
19500.000000 64.564
19750.000000 63.881
