* Measurement data measured by REW V5.20.9
* Source: Headset (USB-C to 3.5mm Headphone Jack Adapter), MICROPHONE (Master Volume), L, volume: 0.260. Timing signal peak level -24.9 dBFS, measurement signal peak level -22.8 dBFS
* Format: 256k Log Swept Sine, 1 sweep at -12.0 dBFS using an acoustic timing reference
* Dated: 31/03/2024 9:41:00 PM
* REW Settings:
*  C-weighting compensation: Off
*  Target level: 75.0 dB
* Note: ; Delay -0.0220 ms (-7.5 mm, -0.3 in) using estimated IR delay relative to Acoustic reference on SPEAKER L with no timing offset
* Measurement: Crimson L
* Smoothing: 1/24 octave
* Frequency Step: 1/48 octave
* Start Frequency: 1.000 Hz
*
* Freq(Hz) SPL(dB) Phase(degrees)
1.000000 43.962 -151.9355
1.015000 44.010 -155.3371
1.030000 44.070 -158.6671
1.044000 44.136 -161.6999
1.060000 44.225 -165.0643
1.075000 44.322 -168.1075
1.090000 44.434 -171.0311
1.106000 44.570 -174.0155
1.120000 44.706 -176.5708
1.138000 44.902 -179.7982
1.150000 45.046 178.0861
1.172000 45.334 174.2803
1.180000 45.446 172.9194
1.206000 45.833 168.5800
1.220000 46.054 166.2952
1.241000 46.401 162.9346
1.250000 46.555 161.5184
1.265000 46.816 159.1895
1.280000 47.082 156.8994
1.315000 47.719 151.7026
1.320000 47.811 150.9766
1.340000 48.179 148.1126
1.360000 48.546 145.3113
1.380000 48.910 142.5712
1.400000 49.266 139.8904
1.430000 49.781 135.9772
1.450000 50.108 133.4378
1.475000 50.495 130.3428
1.500000 50.877 127.3666
1.525000 51.259 124.5110
1.550000 51.641 121.7695
1.575000 52.021 119.1353
1.600000 52.400 116.6021
1.625000 52.775 114.1630
1.650000 53.148 111.8115
1.675000 53.516 109.5410
1.700000 53.880 107.3448
1.725000 54.238 105.2163
1.750000 54.590 103.1490
1.775000 54.936 101.1361
1.800000 55.273 99.1711
1.825000 55.603 97.2474
1.850000 55.925 95.3801
1.875000 56.239 93.6133
1.900000 56.547 91.9403
1.925000 56.848 90.3519
1.950000 57.143 88.8390
1.975000 57.433 87.3926
2.000000 57.717 86.0037
2.030000 58.052 84.3999
2.060000 58.380 82.8501
2.090000 58.701 81.3385
2.120000 59.018 79.8495
2.140000 59.226 78.8617
2.180000 59.636 76.8765
2.200000 59.838 75.8703
2.240000 60.234 73.8820
2.270000 60.523 72.4297
2.300000 60.805 71.0095
2.330000 61.081 69.6203
2.360000 61.351 68.2611
2.400000 61.704 66.4934
2.430000 61.963 65.1996
2.470000 62.302 63.5153
2.500000 62.553 62.2812
2.540000 62.883 60.6722
2.580000 63.209 59.1047
2.620000 63.527 57.5916
2.650000 63.760 56.4923
2.690000 64.065 55.0701
2.720000 64.289 54.0334
2.760000 64.582 52.6876
2.800000 64.871 51.3788
2.850000 65.225 49.7878
2.900000 65.575 48.2383
2.950000 65.920 46.7250
3.000000 66.258 45.2746
3.040000 66.522 44.1584
3.070000 66.718 43.3434
3.110000 66.975 42.2816
3.150000 67.229 41.2430
3.200000 67.543 39.9690
3.250000 67.852 38.7114
3.300000 68.159 37.4594
3.350000 68.462 36.2203
3.400000 68.760 35.0041
3.450000 69.053 33.8104
3.500000 69.343 32.6386
3.550000 69.629 31.4883
3.600000 69.912 30.3590
3.650000 70.192 29.2502
3.700000 70.469 28.1668
3.750000 70.743 27.1169
3.820000 71.121 25.6897
3.870000 71.387 24.6901
3.950000 71.806 23.1039
4.000000 72.063 22.1084
4.060000 72.368 20.9001
4.120000 72.669 19.6880
4.180000 72.965 18.4772
4.250000 73.305 17.0709
4.310000 73.590 15.8748
4.370000 73.871 14.6910
4.440000 74.191 13.3290
4.500000 74.461 12.1764
4.550000 74.682 11.2242
4.620000 74.985 9.9009
4.680000 75.239 8.7727
4.750000 75.529 7.4600
4.820000 75.812 6.1467
4.870000 76.009 5.2087
4.940000 76.280 3.9007
5.000000 76.506 2.7884
5.080000 76.800 1.3251
5.150000 77.050 0.0690
5.220000 77.294 -1.1697
5.300000 77.563 -2.5651
5.380000 77.824 -3.9363
5.450000 78.047 -5.1141
5.520000 78.265 -6.2695
5.600000 78.506 -7.5659
5.700000 78.797 -9.1489
5.800000 79.079 -10.6868
5.900000 79.354 -12.1760
6.000000 79.619 -13.6161
6.080000 79.826 -14.7350
6.150000 80.003 -15.6913
6.220000 80.179 -16.6277
6.300000 80.377 -17.6702
6.400000 80.619 -18.9310
6.500000 80.856 -20.1556
6.600000 81.091 -21.3561
6.700000 81.323 -22.5281
6.800000 81.552 -23.6710
6.900000 81.778 -24.7952
7.000000 82.001 -25.9092
7.100000 82.223 -27.0052
7.200000 82.441 -28.0883
7.300000 82.657 -29.1674
7.400000 82.869 -30.2474
7.500000 83.078 -31.3235
7.620000 83.324 -32.6108
7.750000 83.583 -34.0033
7.880000 83.836 -35.3943
8.000000 84.062 -36.6725
8.120000 84.282 -37.9423
8.250000 84.512 -39.3115
8.380000 84.735 -40.6666
8.500000 84.934 -41.8990
8.620000 85.127 -43.1171
8.750000 85.330 -44.4165
8.850000 85.483 -45.3994
9.000000 85.705 -46.8478
9.120000 85.879 -47.9866
9.250000 86.063 -49.2008
9.380000 86.244 -50.3939
9.500000 86.407 -51.4827
9.620000 86.569 -52.5614
9.750000 86.741 -53.7166
9.880000 86.910 -54.8651
10.000000 87.063 -55.9218
10.150000 87.252 -57.2358
10.300000 87.435 -58.5462
10.440000 87.603 -59.7670
10.600000 87.789 -61.1562
10.750000 87.957 -62.4526
10.900000 88.121 -63.7422
11.060000 88.289 -65.1032
11.200000 88.432 -66.2831
11.380000 88.609 -67.7793
11.500000 88.724 -68.7628
11.720000 88.927 -70.5369
11.800000 89.000 -71.1720
12.060000 89.228 -73.2021
12.200000 89.348 -74.2757
12.410000 89.523 -75.8618
12.500000 89.597 -76.5349
12.650000 89.718 -77.6464
12.800000 89.837 -78.7476
13.150000 90.104 -81.2819
13.200000 90.141 -81.6398
13.400000 90.285 -83.0619
13.600000 90.425 -84.4661
13.800000 90.559 -85.8519
14.000000 90.688 -87.2156
14.300000 90.873 -89.2169
14.500000 90.990 -90.5182
14.750000 91.132 -92.1069
15.000000 91.268 -93.6537
15.250000 91.399 -95.1618
15.500000 91.527 -96.6387
15.750000 91.652 -98.0897
16.000000 91.773 -99.5232
16.250000 91.889 -100.9431
16.500000 92.000 -102.3490
16.750000 92.105 -103.7389
17.000000 92.203 -105.1033
17.250000 92.295 -106.4375
17.500000 92.382 -107.7354
17.750000 92.467 -108.9979
18.000000 92.549 -110.2316
18.250000 92.631 -111.4438
18.500000 92.712 -112.6489
18.750000 92.790 -113.8518
19.000000 92.866 -115.0569
19.250000 92.936 -116.2595
19.500000 93.002 -117.4509
19.750000 93.062 -118.6243
20.000000 93.119 -119.7704
20.299999 93.185 -121.1128
20.600000 93.250 -122.4279
20.900000 93.313 -123.7303
21.200001 93.375 -125.0347
21.400000 93.414 -125.9058
21.799999 93.482 -127.6349
22.000000 93.512 -128.4812
22.400000 93.564 -130.1105
22.700001 93.601 -131.2700
23.000000 93.641 -132.3868
23.299999 93.684 -133.4861
23.600000 93.729 -134.5900
24.000000 93.788 -136.0887
24.299999 93.826 -137.2263
24.700001 93.864 -138.7269
25.000000 93.885 -139.8107
25.400000 93.907 -141.1757
25.799999 93.928 -142.4533
26.200001 93.952 -143.6765
26.500000 93.973 -144.5811
26.900000 93.999 -145.7863
27.200001 94.016 -146.6870
27.600000 94.033 -147.8659
28.000000 94.045 -148.9930
28.500000 94.061 -150.3163
29.000000 94.087 -151.5991
29.500000 94.122 -152.9402
30.000000 94.151 -154.3983
30.400000 94.156 -155.6157
30.700001 94.148 -156.5170
31.100000 94.124 -157.6469
31.500000 94.092 -158.6646
32.000000 94.055 -159.7883
32.500000 94.030 -160.8059
33.000000 94.019 -161.7822
33.500000 94.021 -162.7626
34.000000 94.033 -163.7980
34.500000 94.046 -164.9294
35.000000 94.045 -166.1444
35.500000 94.023 -167.3645
36.000000 93.981 -168.4930
36.500000 93.928 -169.4674
37.000000 93.878 -170.2707
37.500000 93.842 -170.9301
38.200001 93.834 -171.7658
38.700001 93.857 -172.4540
39.500000 93.898 -173.8942
40.000000 93.903 -174.9308
40.599998 93.883 -176.1520
41.200001 93.851 -177.2579
41.799999 93.821 -178.2736
42.500000 93.792 -179.4341
43.099998 93.767 179.5543
43.700001 93.734 178.5559
44.400002 93.687 177.4653
45.000000 93.646 176.6057
45.500000 93.613 175.9283
46.200001 93.571 175.0276
46.799999 93.542 174.2770
47.500000 93.516 173.3444
48.200001 93.482 172.3085
48.700001 93.446 171.5512
49.400002 93.386 170.5414
50.000000 93.335 169.7087
50.799999 93.266 168.5803
51.500000 93.200 167.5989
52.200001 93.132 166.6697
53.000000 93.059 165.6610
53.799999 92.992 164.6808
54.500000 92.934 163.8464
55.200001 92.877 163.0453
56.000000 92.813 162.1779
57.000000 92.735 161.1407
58.000000 92.655 160.1439
59.000000 92.577 159.1768
60.000000 92.497 158.2115
60.799999 92.432 157.4607
61.500000 92.378 156.8110
62.200001 92.323 156.1583
63.000000 92.257 155.4384
64.000000 92.178 154.6031
65.000000 92.104 153.7793
66.000000 92.025 152.9542
67.000000 91.939 152.1758
68.000000 91.853 151.4408
69.000000 91.769 150.7250
70.000000 91.688 150.0224
71.000000 91.611 149.3093
72.000000 91.531 148.5861
73.000000 91.447 147.9136
74.000000 91.367 147.3044
75.000000 91.292 146.6994
76.199997 91.198 145.9564
77.500000 91.093 145.1819
78.800003 90.990 144.4227
80.000000 90.893 143.7429
81.199997 90.799 143.1168
82.500000 90.704 142.4885
83.800003 90.611 141.8376
85.000000 90.515 141.2440
86.199997 90.415 140.6987
87.500000 90.310 140.1406
88.500000 90.234 139.7110
90.000000 90.124 139.1003
91.199997 90.045 138.6577
92.500000 89.964 138.2090
93.800003 89.891 137.7769
95.000000 89.825 137.3017
96.199997 89.745 136.7697
97.500000 89.644 136.2278
98.800003 89.542 135.7527
100.000000 89.451 135.3300
101.500000 89.339 134.8401
103.000000 89.230 134.3794
104.400002 89.125 133.9661
106.000000 88.996 133.5475
107.500000 88.868 133.2529
109.000000 88.737 133.0984
110.599998 88.601 133.1377
112.000000 88.493 133.3527
113.800003 88.390 133.8671
115.000000 88.364 134.3275
117.199997 88.455 134.9912
118.000000 88.525 135.0050
120.599998 88.750 133.8315
122.000000 88.796 132.6934
124.099998 88.750 130.9804
125.000000 88.702 130.3484
126.500000 88.606 129.4670
128.000000 88.503 128.8046
131.500000 88.264 127.7107
132.000000 88.226 127.5824
134.000000 88.080 127.1579
136.000000 87.967 126.6795
138.000000 87.857 126.1043
140.000000 87.745 125.7648
143.000000 87.619 125.7376
145.000000 87.582 125.6827
147.500000 87.559 125.2117
150.000000 87.514 124.4354
152.500000 87.428 123.6741
155.000000 87.318 123.0641
157.500000 87.205 122.5779
160.000000 87.097 122.1733
162.500000 86.993 121.8339
165.000000 86.899 121.5406
167.500000 86.815 121.2814
170.000000 86.733 121.1060
172.500000 86.660 121.0081
175.000000 86.601 120.8911
177.500000 86.557 120.7170
180.000000 86.523 120.4779
182.500000 86.491 120.1688
185.000000 86.456 119.7913
187.500000 86.415 119.3744
190.000000 86.368 118.9542
192.500000 86.316 118.5511
195.000000 86.260 118.1666
197.500000 86.200 117.8025
200.000000 86.138 117.4639
203.000000 86.068 117.0947
206.000000 86.005 116.7428
209.000000 85.940 116.4193
212.000000 85.873 116.1235
214.000000 85.829 115.9339
218.000000 85.743 115.5842
220.000000 85.700 115.4319
224.000000 85.616 115.1786
227.000000 85.555 115.0320
230.000000 85.494 114.9227
233.000000 85.435 114.8607
236.000000 85.382 114.8930
240.000000 85.332 115.1244
243.000000 85.322 115.3855
247.000000 85.363 115.7017
250.000000 85.432 115.7680
254.000000 85.543 115.4515
258.000000 85.629 114.7015
262.000000 85.667 113.7646
265.000000 85.668 113.0757
269.000000 85.647 112.2535
272.000000 85.623 111.7084
276.000000 85.588 111.0695
280.000000 85.553 110.5165
285.000000 85.512 109.9050
290.000000 85.477 109.3377
295.000000 85.448 108.8005
300.000000 85.421 108.2800
304.000000 85.402 107.8853
307.000000 85.391 107.5893
311.000000 85.377 107.1904
315.000000 85.364 106.8079
320.000000 85.354 106.3413
325.000000 85.347 105.8502
330.000000 85.338 105.3583
335.000000 85.331 104.8868
340.000000 85.328 104.4188
345.000000 85.328 103.9437
350.000000 85.330 103.4639
355.000000 85.332 102.9758
360.000000 85.334 102.4828
365.000000 85.336 101.9919
370.000000 85.339 101.5015
375.000000 85.344 101.0099
382.000000 85.352 100.3140
387.000000 85.359 99.8119
395.000000 85.369 99.0087
400.000000 85.377 98.5105
406.000000 85.387 97.9193
412.000000 85.397 97.3203
418.000000 85.406 96.7200
425.000000 85.416 96.0297
431.000000 85.425 95.4401
437.000000 85.434 94.8486
444.000000 85.443 94.1628
450.000000 85.450 93.5732
455.000000 85.456 93.0770
462.000000 85.463 92.3902
468.000000 85.470 91.8103
475.000000 85.476 91.1365
482.000000 85.480 90.4655
487.000000 85.483 89.9918
494.000000 85.487 89.3375
500.000000 85.490 88.7821
508.000000 85.492 88.0511
515.000000 85.493 87.4213
522.000000 85.493 86.7991
530.000000 85.491 86.1016
538.000000 85.489 85.4218
545.000000 85.485 84.8381
552.000000 85.481 84.2665
560.000000 85.475 83.6303
570.000000 85.465 82.8549
580.000000 85.454 82.1057
590.000000 85.442 81.3902
600.000000 85.428 80.7045
608.000000 85.416 80.1747
615.000000 85.405 79.7278
622.000000 85.395 79.2989
630.000000 85.383 78.8292
640.000000 85.367 78.2689
650.000000 85.350 77.7349
660.000000 85.334 77.2255
670.000000 85.318 76.7453
680.000000 85.303 76.2988
690.000000 85.289 75.8826
700.000000 85.277 75.4949
710.000000 85.265 75.1366
720.000000 85.254 74.8007
730.000000 85.245 74.4883
740.000000 85.238 74.2067
750.000000 85.232 73.9495
762.000000 85.229 73.6666
775.000000 85.228 73.3917
788.000000 85.231 73.1504
800.000000 85.238 72.9539
812.000000 85.248 72.7811
825.000000 85.263 72.6133
838.000000 85.282 72.4646
850.000000 85.304 72.3469
862.000000 85.330 72.2437
875.000000 85.363 72.1437
885.000000 85.391 72.0682
900.000000 85.437 71.9506
912.000000 85.478 71.8564
925.000000 85.526 71.7574
938.000000 85.576 71.6580
950.000000 85.626 71.5613
962.000000 85.677 71.4553
975.000000 85.736 71.3315
988.000000 85.796 71.1988
1000.000000 85.853 71.0674
1015.000000 85.925 70.8893
1030.000000 85.999 70.6960
1044.000000 86.069 70.5036
1060.000000 86.148 70.2715
1075.000000 86.221 70.0375
1090.000000 86.292 69.7905
1106.000000 86.367 69.5200
1120.000000 86.432 69.2797
1138.000000 86.511 68.9671
1150.000000 86.563 68.7610
1172.000000 86.653 68.3989
1180.000000 86.684 68.2767
1206.000000 86.786 67.9388
1220.000000 86.843 67.7910
1241.000000 86.940 67.5808
1250.000000 86.986 67.4798
1265.000000 87.064 67.2758
1280.000000 87.141 67.0212
1315.000000 87.295 66.3320
1320.000000 87.314 66.2360
1340.000000 87.386 65.8888
1360.000000 87.455 65.6191
1380.000000 87.525 65.4203
1400.000000 87.605 65.2661
1430.000000 87.749 65.0184
1450.000000 87.852 64.7745
1475.000000 87.976 64.3743
1500.000000 88.086 63.9373
1525.000000 88.187 63.5259
1550.000000 88.285 63.1508
1575.000000 88.382 62.8105
1600.000000 88.480 62.4996
1625.000000 88.580 62.2039
1650.000000 88.682 61.9124
1675.000000 88.786 61.6212
1700.000000 88.892 61.3279
1725.000000 89.000 61.0284
1750.000000 89.110 60.7200
1775.000000 89.220 60.3988
1800.000000 89.332 60.0638
1825.000000 89.444 59.7172
1850.000000 89.556 59.3562
1875.000000 89.668 58.9792
1900.000000 89.780 58.5869
1925.000000 89.891 58.1822
1950.000000 90.001 57.7646
1975.000000 90.111 57.3347
2000.000000 90.220 56.8951
2030.000000 90.350 56.3522
2060.000000 90.481 55.7798
2090.000000 90.611 55.1626
2120.000000 90.735 54.4973
2140.000000 90.812 54.0417
2180.000000 90.952 53.1677
2200.000000 91.017 52.7762
2240.000000 91.157 52.1101
2270.000000 91.280 51.6780
2300.000000 91.428 51.2177
2330.000000 91.596 50.6288
2360.000000 91.774 49.8418
2400.000000 92.004 48.4545
2430.000000 92.155 47.1890
2470.000000 92.313 45.2976
2500.000000 92.395 43.8193
2540.000000 92.459 41.8932
2580.000000 92.484 40.1175
2620.000000 92.487 38.5302
2650.000000 92.484 37.4451
2690.000000 92.479 36.0828
2720.000000 92.475 35.0890
2760.000000 92.461 33.7806
2800.000000 92.435 32.5203
2850.000000 92.386 31.0861
2900.000000 92.333 29.8345
2950.000000 92.288 28.7134
3000.000000 92.255 27.6611
3040.000000 92.238 26.8332
3070.000000 92.228 26.2031
3110.000000 92.221 25.3251
3150.000000 92.214 24.3770
3200.000000 92.199 23.0891
3250.000000 92.165 21.7264
3300.000000 92.111 20.3387
3350.000000 92.039 18.9526
3400.000000 91.950 17.5770
3450.000000 91.845 16.2142
3500.000000 91.721 14.8673
3550.000000 91.576 13.5399
3600.000000 91.408 12.2389
3650.000000 91.213 10.9735
3700.000000 90.985 9.7720
3750.000000 90.719 8.6912
3820.000000 90.278 7.5341
3870.000000 89.919 7.0854
3950.000000 89.290 7.2654
4000.000000 88.885 8.0541
4060.000000 88.417 9.7642
4120.000000 88.010 12.3154
4180.000000 87.712 15.6052
4250.000000 87.559 20.0610
4310.000000 87.628 24.0040
4370.000000 87.881 27.6220
4440.000000 88.368 30.9161
4500.000000 88.890 32.6302
4550.000000 89.350 33.1714
4620.000000 89.964 32.5942
4680.000000 90.408 31.0253
4750.000000 90.783 28.2970
4820.000000 90.980 25.0661
4870.000000 91.013 22.7142
4940.000000 90.928 19.6583
5000.000000 90.758 17.4330
5080.000000 90.437 15.1782
5150.000000 90.105 13.8998
5220.000000 89.757 13.2257
5300.000000 89.365 13.1016
5380.000000 89.000 13.5535
5450.000000 88.713 14.3345
5520.000000 88.461 15.4022
5600.000000 88.222 16.8952
5700.000000 88.002 19.0623
5800.000000 87.873 21.4451
5900.000000 87.837 23.9056
6000.000000 87.894 26.3171
6080.000000 88.008 28.1265
6150.000000 88.155 29.5604
6220.000000 88.345 30.7988
6300.000000 88.609 31.9003
6400.000000 88.997 32.6755
6500.000000 89.425 32.6066
6600.000000 89.846 31.5195
6700.000000 90.198 29.3403
6800.000000 90.401 26.2294
6900.000000 90.387 22.7100
7000.000000 90.136 19.6479
7100.000000 89.706 17.9667
7200.000000 89.241 18.2169
7300.000000 88.938 20.2395
7400.000000 88.977 23.0623
7500.000000 89.403 25.1950
7620.000000 90.229 24.8701
7750.000000 91.054 19.8205
7880.000000 91.383 11.0562
8000.000000 91.110 2.1014
8120.000000 90.357 -5.6647
8250.000000 89.178 -11.6506
8380.000000 87.808 -14.9219
8500.000000 86.499 -15.7612
8620.000000 85.231 -14.8507
8750.000000 83.966 -12.3042
8850.000000 83.094 -9.5039
9000.000000 81.966 -4.3204
9120.000000 81.225 0.4138
9250.000000 80.586 5.8435
9380.000000 80.100 11.3574
9500.000000 79.772 16.4141
9620.000000 79.551 21.3401
9750.000000 79.415 26.4272
9880.000000 79.370 31.2169
10000.000000 79.401 35.3761
10150.000000 79.535 40.1519
10300.000000 79.766 44.2625
10440.000000 80.038 47.3332
10600.000000 80.368 49.8792
10750.000000 80.649 51.4046
10900.000000 80.866 52.3181
11060.000000 81.035 53.0035
11200.000000 81.173 53.3409
11380.000000 81.272 52.9522
11500.000000 81.226 52.5181
11720.000000 80.969 52.4768
11800.000000 80.848 52.7849
12060.000000 80.457 54.9072
12200.000000 80.283 56.6404
12410.000000 80.108 59.7788
12500.000000 80.071 61.2744
12650.000000 80.069 63.9183
12800.000000 80.154 66.6896
13150.000000 80.750 73.0766
13200.000000 80.885 73.9288
13400.000000 81.570 76.9978
13600.000000 82.496 79.1437
13800.000000 83.659 79.7928
14000.000000 85.007 78.1633
14300.000000 87.023 69.7507
14500.000000 88.053 59.9962
14750.000000 88.719 45.0380
15000.000000 88.770 30.1567
15250.000000 88.576 16.1680
15500.000000 88.203 0.3373
15750.000000 86.993 -16.5992
16000.000000 84.638 -25.1512
16250.000000 82.516 -23.1840
16500.000000 82.020 -19.7994
16750.000000 82.628 -20.8481
17000.000000 83.553 -27.4286
17250.000000 84.356 -39.2072
17500.000000 84.759 -54.8884
17750.000000 84.656 -72.1885
18000.000000 84.157 -88.8669
18250.000000 83.532 -104.0609
18500.000000 83.064 -118.4708
18750.000000 82.922 -133.5706
19000.000000 83.133 -150.9905
19250.000000 83.604 -172.3552
19500.000000 84.119 161.3113
19750.000000 84.430 132.8219
