* Measurement data measured by REW V5.20.9
* Source: USB-C to 3.5mm Headphone Jack Adapter, USB-C to 3.5mm Headphone Jack Adapter, 0, volume: 0.138
* Format: 256k Log Swept Sine, 1 sweep at -12.0 dBFS with no timing reference
* Dated: 06/04/2023 10:03:55 PM
* REW Settings:
*  C-weighting compensation: Off
*  Target level: 75.0 dB
* Note: ; 
* Measurement: Crystal 6I R
* Smoothing: 1/24 octave
* Frequency Step: 1/48 octave
* Start Frequency: 1.000 Hz
*
* Freq(Hz) SPL(dB) Phase(degrees)
1.000000 59.777 -97.7281
1.015000 59.932 -97.7413
1.030000 60.084 -97.7690
1.044000 60.223 -97.8070
1.060000 60.377 -97.8641
1.075000 60.519 -97.9304
1.090000 60.659 -98.0085
1.106000 60.804 -98.1041
1.120000 60.929 -98.1978
1.138000 61.087 -98.3311
1.150000 61.191 -98.4276
1.172000 61.378 -98.6194
1.180000 61.446 -98.6936
1.206000 61.661 -98.9501
1.220000 61.776 -99.0971
1.241000 61.947 -99.3282
1.250000 62.020 -99.4307
1.265000 62.140 -99.6059
1.280000 62.261 -99.7860
1.315000 62.542 -100.2222
1.320000 62.582 -100.2860
1.340000 62.743 -100.5443
1.360000 62.905 -100.8068
1.380000 63.067 -101.0744
1.400000 63.227 -101.3482
1.430000 63.466 -101.7731
1.450000 63.623 -102.0675
1.475000 63.818 -102.4500
1.500000 64.011 -102.8508
1.525000 64.202 -103.2720
1.550000 64.390 -103.7160
1.575000 64.575 -104.1849
1.600000 64.757 -104.6810
1.625000 64.936 -105.2066
1.650000 65.111 -105.7638
1.675000 65.283 -106.3549
1.700000 65.450 -106.9811
1.725000 65.615 -107.6396
1.750000 65.777 -108.3289
1.775000 65.936 -109.0475
1.800000 66.092 -109.7939
1.825000 66.245 -110.5668
1.850000 66.395 -111.3647
1.875000 66.542 -112.1862
1.900000 66.686 -113.0298
1.925000 66.826 -113.8941
1.950000 66.963 -114.7777
1.975000 67.097 -115.6791
2.000000 67.228 -116.5970
2.030000 67.380 -117.7189
2.060000 67.528 -118.8716
2.090000 67.671 -120.0563
2.120000 67.809 -121.2718
2.140000 67.899 -122.0988
2.180000 68.073 -123.7909
2.200000 68.156 -124.6553
2.240000 68.317 -126.4193
2.270000 68.433 -127.7715
2.300000 68.543 -129.1475
2.330000 68.649 -130.5461
2.360000 68.751 -131.9662
2.400000 68.878 -133.9018
2.430000 68.968 -135.3867
2.470000 69.081 -137.4080
2.500000 69.159 -138.9530
2.540000 69.258 -141.0487
2.580000 69.348 -143.1819
2.620000 69.430 -145.3489
2.650000 69.487 -146.9942
2.690000 69.556 -149.2116
2.720000 69.602 -150.8963
2.760000 69.658 -153.1809
2.800000 69.705 -155.5045
2.850000 69.752 -158.4569
2.900000 69.788 -161.4534
2.950000 69.813 -164.4845
3.000000 69.826 -167.5408
3.040000 69.828 -169.9995
3.070000 69.826 -171.8671
3.110000 69.816 -174.3910
3.150000 69.799 -176.9435
3.200000 69.768 179.8424
3.250000 69.724 176.6225
3.300000 69.668 173.4182
3.350000 69.600 170.2512
3.400000 69.520 167.1197
3.450000 69.429 163.9790
3.500000 69.328 160.8447
3.550000 69.213 157.7362
3.600000 69.083 154.6728
3.650000 68.937 151.6740
3.700000 68.773 148.7591
3.750000 68.592 145.8229
3.820000 68.315 141.6055
3.870000 68.098 138.6658
3.950000 67.713 134.3924
4.000000 67.446 132.1613
4.060000 67.091 130.0687
4.120000 66.667 128.3142
4.180000 66.197 126.9263
4.250000 65.638 125.9711
4.310000 65.191 125.8939
4.370000 64.811 126.6600
4.440000 64.390 128.9578
4.500000 64.012 132.0432
4.550000 63.735 135.1157
4.620000 63.484 139.7461
4.680000 63.470 143.6146
4.750000 63.779 147.7782
4.820000 64.434 152.3630
4.870000 65.050 155.7001
4.940000 66.020 160.0391
5.000000 66.868 163.0793
5.080000 67.911 165.6081
5.150000 68.858 166.5665
5.220000 69.834 166.6573
5.300000 70.927 165.9975
5.380000 71.929 164.8562
5.450000 72.714 163.3835
5.520000 73.446 161.2804
5.600000 74.223 158.4332
5.700000 75.115 154.7695
5.800000 75.923 151.3223
5.900000 76.638 147.7482
6.000000 77.278 144.1405
6.080000 77.747 141.2979
6.150000 78.121 138.7997
6.220000 78.460 136.2991
6.300000 78.812 133.4870
6.400000 79.208 130.1232
6.500000 79.552 126.9119
6.600000 79.844 123.8373
6.700000 80.097 120.9591
6.800000 80.317 118.3126
6.900000 80.495 115.8690
7.000000 80.646 113.6417
7.100000 80.784 111.6483
7.200000 80.899 109.8987
7.300000 80.999 108.3677
7.400000 81.100 107.0244
7.500000 81.204 105.8970
7.620000 81.328 104.8057
7.750000 81.478 103.7614
7.880000 81.653 102.8652
8.000000 81.827 102.1219
8.120000 82.010 101.3049
8.250000 82.223 100.3747
8.380000 82.433 99.3578
8.500000 82.611 98.2782
8.620000 82.780 97.0853
8.750000 82.933 95.7359
8.850000 83.025 94.6446
9.000000 83.125 92.9604
9.120000 83.166 91.7253
9.250000 83.167 90.4547
9.380000 83.133 89.3736
9.500000 83.077 88.6682
9.620000 82.992 88.1934
9.750000 82.899 88.0186
9.880000 82.813 88.2787
10.000000 82.741 88.8400
10.150000 82.718 89.8326
10.300000 82.763 91.2271
10.440000 82.879 92.5249
10.600000 83.119 93.9191
10.750000 83.413 94.9679
10.900000 83.755 95.5017
11.060000 84.157 95.5832
11.200000 84.494 95.1606
11.380000 84.913 93.9955
11.500000 85.157 92.9590
11.720000 85.533 90.5013
11.800000 85.643 89.5461
12.060000 85.898 86.1977
12.200000 85.979 84.4479
12.410000 86.032 81.9344
12.500000 86.039 80.9675
12.650000 86.025 79.4876
12.800000 85.999 78.1962
13.150000 85.926 75.9440
13.200000 85.919 75.6930
13.400000 85.905 74.8336
13.600000 85.921 74.0653
13.800000 85.964 73.3425
14.000000 86.028 72.5626
14.300000 86.139 71.2582
14.500000 86.212 70.3152
14.750000 86.292 69.1026
15.000000 86.362 67.9545
15.250000 86.427 66.9117
15.500000 86.498 65.9868
15.750000 86.582 65.1532
16.000000 86.682 64.3350
16.250000 86.792 63.4844
16.500000 86.906 62.5704
16.750000 87.013 61.5881
17.000000 87.106 60.5831
17.250000 87.184 59.6005
17.500000 87.247 58.6819
17.750000 87.301 57.8635
18.000000 87.352 57.1432
18.250000 87.404 56.5018
18.500000 87.460 55.9138
18.750000 87.521 55.3418
19.000000 87.582 54.7651
19.250000 87.641 54.1780
19.500000 87.696 53.5811
19.750000 87.744 52.9872
20.000000 87.788 52.4073
20.299999 87.836 51.7372
20.600000 87.880 51.0951
20.900000 87.923 50.4709
21.200001 87.966 49.8499
21.400000 87.994 49.4316
21.799999 88.048 48.5807
22.000000 88.073 48.1500
22.400000 88.119 47.2903
22.700001 88.150 46.6610
23.000000 88.179 46.0551
23.299999 88.209 45.4759
23.600000 88.241 44.9205
24.000000 88.288 44.2014
24.299999 88.326 43.6664
24.700001 88.377 42.9556
25.000000 88.413 42.4387
25.400000 88.459 41.8036
25.799999 88.508 41.2590
26.200001 88.568 40.7886
26.500000 88.624 40.4442
26.900000 88.710 39.9248
27.200001 88.777 39.4557
27.600000 88.857 38.7235
28.000000 88.915 37.9241
28.500000 88.955 36.9653
29.000000 88.975 36.1616
29.500000 88.995 35.5005
30.000000 89.026 34.8782
30.400000 89.055 34.3498
30.700001 89.077 33.9244
31.100000 89.101 33.3248
31.500000 89.120 32.7079
32.000000 89.134 31.9537
32.500000 89.142 31.2624
33.000000 89.155 30.6511
33.500000 89.181 30.0770
34.000000 89.219 29.4550
34.500000 89.253 28.7466
35.000000 89.270 28.0243
35.500000 89.271 27.4169
36.000000 89.273 26.9835
36.500000 89.294 26.6496
37.000000 89.334 26.2792
37.500000 89.376 25.8040
38.200001 89.414 25.0549
38.700001 89.428 24.5563
39.500000 89.449 23.8453
40.000000 89.465 23.4094
40.599998 89.483 22.8738
41.200001 89.500 22.3398
41.799999 89.516 21.8241
42.500000 89.537 21.2428
43.099998 89.557 20.7506
43.700001 89.575 20.2746
44.400002 89.595 19.7562
45.000000 89.611 19.3181
45.500000 89.619 18.9531
46.200001 89.620 18.5022
46.799999 89.622 18.1752
47.500000 89.626 17.7300
48.200001 89.601 17.2535
48.700001 89.569 17.0777
49.400002 89.562 17.0944
50.000000 89.617 16.9866
50.799999 89.700 16.2354
51.500000 89.712 15.3503
52.200001 89.696 14.6758
53.000000 89.694 14.0828
53.799999 89.702 13.5087
54.500000 89.713 13.0557
55.200001 89.729 12.6227
56.000000 89.743 12.1329
57.000000 89.753 11.6233
58.000000 89.769 11.1473
59.000000 89.778 10.6432
60.000000 89.783 10.1455
60.799999 89.786 9.7338
61.500000 89.788 9.3757
62.200001 89.790 9.0269
63.000000 89.795 8.6357
64.000000 89.803 8.1675
65.000000 89.815 7.7020
66.000000 89.823 7.2241
67.000000 89.827 6.7744
68.000000 89.829 6.3218
69.000000 89.824 5.8599
70.000000 89.814 5.4403
71.000000 89.810 5.0596
72.000000 89.815 4.6660
73.000000 89.822 4.2262
74.000000 89.824 3.7811
75.000000 89.826 3.3639
76.199997 89.828 2.8698
77.500000 89.823 2.3456
78.800003 89.814 1.8794
80.000000 89.808 1.4844
81.199997 89.805 1.0963
82.500000 89.809 0.6581
83.800003 89.811 0.1427
85.000000 89.802 -0.3415
86.199997 89.786 -0.7740
87.500000 89.773 -1.1754
88.500000 89.766 -1.4689
90.000000 89.761 -1.9037
91.199997 89.759 -2.2770
92.500000 89.752 -2.6910
93.800003 89.743 -3.0759
95.000000 89.735 -3.4245
96.199997 89.725 -3.7590
97.500000 89.714 -4.1123
98.800003 89.701 -4.4537
100.000000 89.693 -4.7760
101.500000 89.680 -5.2369
103.000000 89.661 -5.6746
104.400002 89.647 -6.0594
106.000000 89.632 -6.4974
107.500000 89.615 -6.8984
109.000000 89.596 -7.2833
110.599998 89.577 -7.6836
112.000000 89.563 -8.0068
113.800003 89.551 -8.3947
115.000000 89.544 -8.6556
117.199997 89.523 -9.1052
118.000000 89.516 -9.2628
120.599998 89.488 -9.8306
122.000000 89.469 -10.1011
124.099998 89.449 -10.4553
125.000000 89.442 -10.6086
126.500000 89.430 -10.8775
128.000000 89.421 -11.1837
131.500000 89.399 -11.9509
132.000000 89.397 -12.0509
134.000000 89.383 -12.4242
136.000000 89.361 -12.7864
138.000000 89.330 -13.1526
140.000000 89.303 -13.5053
143.000000 89.266 -13.9634
145.000000 89.234 -14.2242
147.500000 89.184 -14.6683
150.000000 89.134 -15.0126
152.500000 89.160 -15.1736
155.000000 89.200 -15.4274
157.500000 89.219 -15.6815
160.000000 89.233 -16.0511
162.500000 89.252 -16.5404
165.000000 89.268 -17.0802
167.500000 89.278 -17.6423
170.000000 89.280 -18.2825
172.500000 89.268 -18.9537
175.000000 89.244 -19.5815
177.500000 89.215 -20.1759
180.000000 89.182 -20.7494
182.500000 89.146 -21.2845
185.000000 89.109 -21.7808
187.500000 89.071 -22.2524
190.000000 89.033 -22.6965
192.500000 88.995 -23.1232
195.000000 88.956 -23.5541
197.500000 88.917 -23.9973
200.000000 88.878 -24.4226
203.000000 88.834 -24.8610
206.000000 88.793 -25.2719
209.000000 88.748 -25.6927
212.000000 88.704 -26.1052
214.000000 88.676 -26.3731
218.000000 88.620 -26.9043
220.000000 88.592 -27.1641
224.000000 88.537 -27.6725
227.000000 88.498 -28.0456
230.000000 88.459 -28.4149
233.000000 88.419 -28.7850
236.000000 88.378 -29.1556
240.000000 88.322 -29.6353
243.000000 88.280 -29.9794
247.000000 88.211 -30.4359
250.000000 88.163 -30.7659
254.000000 88.123 -31.2109
258.000000 88.081 -31.6487
262.000000 88.028 -32.0855
265.000000 87.988 -32.4106
269.000000 87.935 -32.8260
272.000000 87.895 -33.1269
276.000000 87.843 -33.5170
280.000000 87.790 -33.8949
285.000000 87.724 -34.3630
290.000000 87.658 -34.8201
295.000000 87.594 -35.2745
300.000000 87.529 -35.7085
304.000000 87.478 -36.0469
307.000000 87.439 -36.3014
311.000000 87.387 -36.6392
315.000000 87.336 -36.9736
320.000000 87.273 -37.3771
325.000000 87.210 -37.7640
330.000000 87.146 -38.1406
335.000000 87.083 -38.5000
340.000000 87.020 -38.8480
345.000000 86.954 -39.1685
350.000000 86.887 -39.4855
355.000000 86.827 -39.8621
360.000000 86.768 -40.2239
365.000000 86.708 -40.5493
370.000000 86.647 -40.8619
375.000000 86.586 -41.1702
382.000000 86.502 -41.5825
387.000000 86.442 -41.8707
395.000000 86.346 -42.3120
400.000000 86.287 -42.5749
406.000000 86.216 -42.8845
412.000000 86.144 -43.1873
418.000000 86.075 -43.4797
425.000000 85.995 -43.8067
431.000000 85.928 -44.0760
437.000000 85.859 -44.3196
444.000000 85.778 -44.5431
450.000000 85.710 -44.7355
455.000000 85.653 -44.9760
462.000000 85.576 -45.3064
468.000000 85.511 -45.5327
475.000000 85.437 -45.7716
482.000000 85.361 -45.9990
487.000000 85.307 -46.1567
494.000000 85.232 -46.3655
500.000000 85.168 -46.5314
508.000000 85.083 -46.7438
515.000000 85.009 -46.9128
522.000000 84.937 -47.0680
530.000000 84.857 -47.2358
538.000000 84.775 -47.3969
545.000000 84.700 -47.5464
552.000000 84.629 -47.6655
560.000000 84.555 -47.7452
570.000000 84.458 -47.8229
580.000000 84.359 -47.8723
590.000000 84.258 -47.8640
600.000000 84.161 -47.7769
608.000000 84.094 -47.6561
615.000000 84.046 -47.5275
622.000000 84.007 -47.3984
630.000000 83.972 -47.2926
640.000000 83.936 -47.2413
650.000000 83.895 -47.2655
660.000000 83.837 -47.3762
670.000000 83.774 -47.4407
680.000000 83.711 -47.4424
690.000000 83.648 -47.4136
700.000000 83.587 -47.3567
710.000000 83.529 -47.2650
720.000000 83.473 -47.1526
730.000000 83.420 -47.0377
740.000000 83.370 -46.9261
750.000000 83.324 -46.7902
762.000000 83.276 -46.5278
775.000000 83.226 -46.2447
788.000000 83.181 -45.9536
800.000000 83.146 -45.6752
812.000000 83.117 -45.4002
825.000000 83.090 -45.0878
838.000000 83.067 -44.7410
850.000000 83.050 -44.4331
862.000000 83.042 -44.1641
875.000000 83.039 -43.8571
885.000000 83.040 -43.6147
900.000000 83.048 -43.2620
912.000000 83.059 -42.9793
925.000000 83.075 -42.6722
938.000000 83.097 -42.3716
950.000000 83.119 -42.1112
962.000000 83.139 -41.8861
975.000000 83.164 -41.6605
988.000000 83.196 -41.4481
1000.000000 83.229 -41.2631
1015.000000 83.273 -41.0475
1030.000000 83.319 -40.8573
1044.000000 83.363 -40.6903
1060.000000 83.410 -40.5480
1075.000000 83.453 -40.4399
1090.000000 83.498 -40.3297
1106.000000 83.545 -40.2263
1120.000000 83.587 -40.1524
1138.000000 83.639 -40.0763
1150.000000 83.673 -40.0312
1172.000000 83.728 -39.9440
1180.000000 83.748 -39.9122
1206.000000 83.810 -39.8053
1220.000000 83.842 -39.7391
1241.000000 83.891 -39.6356
1250.000000 83.910 -39.5829
1265.000000 83.939 -39.4769
1280.000000 83.966 -39.3585
1315.000000 84.033 -39.0368
1320.000000 84.042 -38.9868
1340.000000 84.081 -38.7782
1360.000000 84.120 -38.5292
1380.000000 84.160 -38.2382
1400.000000 84.200 -37.9188
1430.000000 84.265 -37.3966
1450.000000 84.312 -37.0183
1475.000000 84.371 -36.4963
1500.000000 84.434 -35.9260
1525.000000 84.504 -35.3101
1550.000000 84.578 -34.6510
1575.000000 84.660 -33.9696
1600.000000 84.749 -33.2578
1625.000000 84.844 -32.5183
1650.000000 84.946 -31.7473
1675.000000 85.059 -30.9487
1700.000000 85.178 -30.1276
1725.000000 85.303 -29.2936
1750.000000 85.436 -28.4501
1775.000000 85.580 -27.5888
1800.000000 85.731 -26.7184
1825.000000 85.890 -25.8470
1850.000000 86.059 -24.9722
1875.000000 86.236 -24.0811
1900.000000 86.421 -23.1895
1925.000000 86.616 -22.2992
1950.000000 86.822 -21.4164
1975.000000 87.037 -20.5554
2000.000000 87.261 -19.7125
2030.000000 87.544 -18.7248
2060.000000 87.843 -17.7679
2090.000000 88.157 -16.8521
2120.000000 88.488 -15.9966
2140.000000 88.716 -15.4684
2180.000000 89.195 -14.5261
2200.000000 89.445 -14.1179
2240.000000 89.963 -13.4436
2270.000000 90.369 -13.0712
2300.000000 90.790 -12.8419
2330.000000 91.223 -12.7832
2360.000000 91.665 -12.9136
2400.000000 92.262 -13.4103
2430.000000 92.710 -14.0482
2470.000000 93.299 -15.2785
2500.000000 93.729 -16.4901
2540.000000 94.272 -18.4852
2580.000000 94.768 -20.9139
2620.000000 95.202 -23.7558
2650.000000 95.473 -26.1243
2690.000000 95.744 -29.4817
2720.000000 95.874 -32.0251
2760.000000 95.954 -35.2511
2800.000000 95.945 -38.1115
2850.000000 95.850 -40.9985
2900.000000 95.711 -43.0574
2950.000000 95.574 -44.3489
3000.000000 95.472 -45.0217
3040.000000 95.430 -45.2395
3070.000000 95.426 -45.2819
3110.000000 95.457 -45.2552
3150.000000 95.527 -45.2170
3200.000000 95.661 -45.2764
3250.000000 95.829 -45.5613
3300.000000 96.011 -46.1445
3350.000000 96.184 -47.0476
3400.000000 96.327 -48.2244
3450.000000 96.422 -49.5610
3500.000000 96.464 -50.9083
3550.000000 96.463 -52.1348
3600.000000 96.435 -53.1777
3650.000000 96.395 -54.0591
3700.000000 96.355 -54.8586
3750.000000 96.314 -55.6711
3820.000000 96.231 -56.9502
3870.000000 96.132 -57.9534
3950.000000 95.865 -59.4775
4000.000000 95.627 -60.1808
4060.000000 95.281 -60.5767
4120.000000 94.896 -60.3843
4180.000000 94.497 -59.5906
4250.000000 94.040 -57.9489
4310.000000 93.675 -55.9780
4370.000000 93.346 -53.5428
4440.000000 93.022 -50.2004
4500.000000 92.803 -46.9759
4550.000000 92.665 -44.0767
4620.000000 92.545 -39.7534
4680.000000 92.513 -35.8584
4750.000000 92.565 -31.1610
4820.000000 92.723 -26.3797
4870.000000 92.905 -22.9746
4940.000000 93.267 -18.3458
5000.000000 93.677 -14.6569
5080.000000 94.360 -10.4409
5150.000000 95.049 -7.7122
5220.000000 95.766 -6.1171
5300.000000 96.528 -5.7429
5380.000000 97.133 -6.5562
5450.000000 97.499 -7.6498
5520.000000 97.736 -8.5452
5600.000000 97.921 -8.9353
5700.000000 98.154 -8.4708
5800.000000 98.499 -7.5226
5900.000000 98.978 -6.9144
6000.000000 99.537 -7.3631
6080.000000 99.972 -8.7935
6150.000000 100.285 -10.8676
6220.000000 100.488 -13.5817
6300.000000 100.543 -17.1212
6400.000000 100.325 -21.4056
6500.000000 99.837 -24.6074
6600.000000 99.185 -26.1486
6700.000000 98.493 -25.9793
6800.000000 97.857 -24.4006
6900.000000 97.323 -21.7657
7000.000000 96.936 -18.3779
7100.000000 96.711 -14.7025
7200.000000 96.635 -10.9911
7300.000000 96.709 -7.4552
7400.000000 96.934 -4.3476
7500.000000 97.310 -1.9841
7620.000000 97.939 -0.8003
7750.000000 98.684 -2.7842
7880.000000 99.185 -8.6727
8000.000000 99.162 -16.8810
8120.000000 98.485 -25.6073
8250.000000 97.061 -32.5157
8380.000000 95.206 -35.1073
8500.000000 93.399 -33.8927
8620.000000 91.689 -30.0658
8750.000000 90.049 -23.9390
8850.000000 88.958 -18.3493
9000.000000 87.577 -9.1534
9120.000000 86.663 -1.3973
9250.000000 85.829 7.2169
9380.000000 85.133 15.9686
9500.000000 84.597 24.1783
9620.000000 84.165 32.5200
9750.000000 83.818 41.6464
9880.000000 83.597 50.8577
10000.000000 83.524 59.4418
10150.000000 83.667 70.0998
10300.000000 84.113 79.9342
10440.000000 84.706 87.4783
10600.000000 85.408 94.3067
10750.000000 86.117 99.7952
10900.000000 86.994 104.2078
11060.000000 88.109 106.4835
11200.000000 89.077 105.2227
11380.000000 89.900 98.3658
11500.000000 89.952 91.4707
11720.000000 88.829 79.8137
11800.000000 88.101 77.2681
12060.000000 85.274 76.7878
12200.000000 83.814 80.1461
12410.000000 81.947 87.5165
12500.000000 81.263 91.1586
12650.000000 80.263 97.5688
12800.000000 79.412 104.2382
13150.000000 77.874 120.2345
13200.000000 77.698 122.5526
13400.000000 77.107 131.9885
13600.000000 76.759 141.6504
13800.000000 76.774 150.8877
14000.000000 77.169 158.1883
14300.000000 77.948 162.5721
14500.000000 78.150 161.3931
14750.000000 77.782 158.0950
15000.000000 76.794 155.9049
15250.000000 75.455 156.5125
15500.000000 74.071 159.9708
15750.000000 72.881 165.2585
16000.000000 71.973 171.2274
16250.000000 71.335 177.3404
16500.000000 70.993 -176.8106
16750.000000 71.006 -171.6610
17000.000000 71.424 -167.8233
17250.000000 72.286 -166.2361
17500.000000 73.576 -168.1702
17750.000000 75.118 -175.3772
18000.000000 76.523 170.6990
18250.000000 77.439 150.7251
18500.000000 77.772 126.9592
18750.000000 77.661 101.3378
19000.000000 77.363 73.4111
19250.000000 76.966 42.8811
19500.000000 77.125 7.3443
19750.000000 77.482 -37.2200
