* Measurement data measured by REW V5.20.9
* Source: Headset (USB-C to 3.5mm Headphone Jack Adapter), MICROPHONE (Master Volume), L, volume: 0.800. Timing signal peak level -27.3 dBFS, measurement signal peak level -27.9 dBFS
* Format: 256k Log Swept Sine, 1 sweep at -12.0 dBFS using an acoustic timing reference
* Dated: 21/09/2023 10:01:33 PM
* REW Settings:
*  C-weighting compensation: Off
*  Target level: 75.0 dB
* Note: ; Delay -0.0351 ms (-12 mm, -0.47 in) using estimated IR delay relative to Acoustic reference on SPEAKER R with no timing offset
* Measurement: Diva Low Bass R
* Smoothing: 1/24 octave
* Frequency Step: 1/48 octave
* Start Frequency: 1.000 Hz
*
* Freq(Hz) SPL(dB) Phase(degrees)
1.000000 70.508 20.5095
1.015000 70.638 18.6406
1.030000 70.764 16.8376
1.044000 70.878 15.2207
1.060000 71.006 13.4585
1.075000 71.121 11.8968
1.090000 71.232 10.4301
1.106000 71.346 8.9768
1.120000 71.442 7.7923
1.138000 71.561 6.3791
1.150000 71.638 5.5011
1.172000 71.773 4.0135
1.180000 71.821 3.5088
1.206000 71.970 1.9879
1.220000 72.047 1.2370
1.241000 72.159 0.1870
1.250000 72.206 -0.2384
1.265000 72.281 -0.9191
1.280000 72.355 -1.5695
1.315000 72.520 -3.0019
1.320000 72.543 -3.1999
1.340000 72.633 -3.9842
1.360000 72.720 -4.7661
1.380000 72.805 -5.5594
1.400000 72.889 -6.3779
1.430000 73.013 -7.6828
1.450000 73.094 -8.6242
1.475000 73.194 -9.8992
1.500000 73.289 -11.2394
1.525000 73.379 -12.6213
1.550000 73.463 -14.0327
1.575000 73.542 -15.4615
1.600000 73.618 -16.8954
1.625000 73.691 -18.3222
1.650000 73.760 -19.7299
1.675000 73.828 -21.1061
1.700000 73.895 -22.4387
1.725000 73.961 -23.7155
1.750000 74.028 -24.9242
1.775000 74.094 -26.0528
1.800000 74.163 -27.0891
1.825000 74.233 -28.0207
1.850000 74.304 -28.8390
1.875000 74.371 -29.5520
1.900000 74.435 -30.1706
1.925000 74.497 -30.7058
1.950000 74.558 -31.1686
1.975000 74.618 -31.5697
2.000000 74.679 -31.9203
2.030000 74.753 -32.2895
2.060000 74.830 -32.6204
2.090000 74.913 -32.9319
2.120000 75.001 -33.2429
2.140000 75.064 -33.4592
2.180000 75.202 -33.9387
2.200000 75.277 -34.2125
2.240000 75.439 -34.7354
2.270000 75.569 -35.0839
2.300000 75.704 -35.4061
2.330000 75.845 -35.7121
2.360000 75.992 -36.0117
2.400000 76.194 -36.4186
2.430000 76.351 -36.7424
2.470000 76.566 -37.2178
2.500000 76.730 -37.6200
2.540000 76.954 -38.2364
2.580000 77.182 -38.9581
2.620000 77.423 -39.7356
2.650000 77.611 -40.3488
2.690000 77.869 -41.2107
2.720000 78.067 -41.8932
2.760000 78.334 -42.8553
2.800000 78.601 -43.8816
2.850000 78.931 -45.2627
2.900000 79.251 -46.7622
2.950000 79.556 -48.3885
3.000000 79.859 -50.1330
3.040000 80.099 -51.6100
3.070000 80.278 -52.7643
3.110000 80.513 -54.3642
3.150000 80.742 -56.0323
3.200000 81.018 -58.2114
3.250000 81.281 -60.4920
3.300000 81.527 -62.8716
3.350000 81.758 -65.3768
3.400000 81.979 -68.0134
3.450000 82.187 -70.7604
3.500000 82.382 -73.5973
3.550000 82.564 -76.5031
3.600000 82.731 -79.4571
3.650000 82.883 -82.4385
3.700000 83.020 -85.4454
3.750000 83.143 -88.5102
3.820000 83.292 -92.8930
3.870000 83.380 -96.0833
3.950000 83.492 -101.2790
4.000000 83.541 -104.5763
4.060000 83.581 -108.5759
4.120000 83.600 -112.6188
4.180000 83.599 -116.7154
4.250000 83.569 -121.5787
4.310000 83.518 -125.8325
4.370000 83.441 -130.1777
4.440000 83.320 -135.3937
4.500000 83.195 -140.0155
4.550000 83.073 -143.9427
4.620000 82.871 -149.5032
4.680000 82.663 -154.2783
4.750000 82.376 -159.7961
4.820000 82.048 -165.0869
4.870000 81.796 -168.6846
4.940000 81.407 -173.6897
5.000000 81.028 -178.1498
5.080000 80.435 175.3245
5.150000 79.818 168.8398
5.220000 79.114 162.3286
5.300000 78.216 154.5409
5.380000 77.224 145.5413
5.450000 76.287 135.9811
5.520000 75.255 124.2195
5.600000 73.657 107.7919
5.700000 71.474 84.2795
5.800000 69.867 59.5728
5.900000 69.651 35.4230
6.000000 70.916 9.6868
6.080000 72.501 -10.9039
6.150000 73.964 -27.6462
6.220000 75.218 -42.1509
6.300000 76.391 -55.5499
6.400000 77.832 -68.9381
6.500000 79.160 -79.7780
6.600000 80.285 -89.3250
6.700000 81.175 -97.0629
6.800000 81.881 -102.9584
6.900000 82.460 -108.2855
7.000000 82.955 -114.1914
7.100000 83.339 -120.3622
7.200000 83.618 -126.3672
7.300000 83.815 -131.9309
7.400000 83.939 -136.9218
7.500000 83.973 -141.4988
7.620000 83.924 -146.3204
7.750000 83.783 -150.5658
7.880000 83.521 -153.8749
8.000000 83.238 -156.0012
8.120000 82.971 -157.0770
8.250000 82.645 -157.0012
8.380000 82.398 -156.0828
8.500000 82.340 -154.6796
8.620000 82.409 -152.4879
8.750000 82.605 -150.1323
8.850000 82.844 -148.8452
9.000000 83.378 -147.3068
9.120000 83.839 -146.6415
9.250000 84.291 -146.7799
9.380000 84.738 -147.6935
9.500000 85.098 -148.9012
9.620000 85.375 -150.3715
9.750000 85.605 -152.3514
9.880000 85.763 -154.3046
10.000000 85.836 -155.9644
10.150000 85.842 -157.9399
10.300000 85.792 -159.4421
10.440000 85.683 -160.3983
10.600000 85.537 -161.0052
10.750000 85.416 -161.0141
10.900000 85.304 -160.5793
11.060000 85.250 -159.9592
11.200000 85.257 -159.2089
11.380000 85.315 -158.4048
11.500000 85.391 -158.0592
11.720000 85.556 -157.7985
11.800000 85.608 -157.8798
12.060000 85.757 -158.6315
12.200000 85.792 -159.1955
12.410000 85.794 -160.1929
12.500000 85.779 -160.5594
12.650000 85.727 -161.1270
12.800000 85.662 -161.5925
13.150000 85.506 -162.1262
13.200000 85.489 -162.1769
13.400000 85.440 -162.2856
13.600000 85.418 -162.4634
13.800000 85.426 -162.7874
14.000000 85.439 -163.3231
14.300000 85.454 -164.5140
14.500000 85.439 -165.4820
14.750000 85.396 -166.7028
15.000000 85.328 -167.8459
15.250000 85.258 -168.7885
15.500000 85.204 -169.5715
15.750000 85.178 -170.2350
16.000000 85.188 -170.8829
16.250000 85.222 -171.5972
16.500000 85.273 -172.4065
16.750000 85.328 -173.3313
17.000000 85.373 -174.3342
17.250000 85.401 -175.3763
17.500000 85.403 -176.4094
17.750000 85.373 -177.3266
18.000000 85.312 -178.0375
18.250000 85.223 -178.4421
18.500000 85.129 -178.4126
18.750000 85.054 -177.9681
19.000000 85.025 -177.1331
19.250000 85.077 -176.1444
19.500000 85.204 -175.2620
19.750000 85.401 -174.6930
20.000000 85.627 -174.7029
20.299999 85.878 -175.4958
20.600000 86.055 -177.0406
20.900000 86.115 -179.0672
21.200001 86.037 178.8113
21.400000 85.912 177.5859
21.799999 85.523 176.0282
22.000000 85.296 175.8942
22.400000 84.890 177.1231
22.700001 84.756 179.0634
23.000000 84.875 -178.8507
23.299999 85.227 -177.5459
23.600000 85.710 -177.6812
24.000000 86.339 179.4050
24.299999 86.642 175.4241
24.700001 86.685 168.7531
25.000000 86.402 163.8665
25.400000 85.611 159.3716
25.799999 84.528 159.3069
26.200001 83.663 164.0751
26.500000 83.528 169.1878
26.900000 84.085 174.9427
27.200001 84.752 176.9014
27.600000 85.555 176.2349
28.000000 86.075 173.3804
28.500000 86.340 169.1182
29.000000 86.300 165.3851
29.500000 86.030 162.6080
30.000000 85.591 161.4214
30.400000 85.229 161.9998
30.700001 85.038 163.1934
31.100000 84.973 165.0398
31.500000 85.090 166.2965
32.000000 85.298 166.3985
32.500000 85.411 165.4672
33.000000 85.439 164.4512
33.500000 85.466 163.4259
34.000000 85.483 161.9953
34.500000 85.410 160.3140
35.000000 85.241 159.0758
35.500000 85.076 158.6460
36.000000 85.008 158.5666
36.500000 85.013 158.2200
37.000000 85.007 157.5282
37.500000 84.960 156.8427
38.200001 84.878 156.2567
38.700001 84.839 156.0054
39.500000 84.820 155.6400
40.000000 84.834 155.2689
40.599998 84.842 154.5151
41.200001 84.795 153.6802
41.799999 84.724 153.1763
42.500000 84.707 152.8411
43.099998 84.738 152.2430
43.700001 84.748 151.3746
44.400002 84.729 150.4323
45.000000 84.725 149.7037
45.500000 84.724 149.0078
46.200001 84.688 147.9359
46.799999 84.605 147.1956
47.500000 84.472 146.9675
48.200001 84.404 147.5516
48.700001 84.454 148.0844
49.400002 84.622 148.0718
50.000000 84.719 147.1438
50.799999 84.663 145.6953
51.500000 84.539 145.0929
52.200001 84.456 144.7708
53.000000 84.384 144.1791
53.799999 84.298 143.5512
54.500000 84.241 143.0380
55.200001 84.200 142.4068
56.000000 84.145 141.6664
57.000000 84.091 140.9877
58.000000 84.075 140.3427
59.000000 84.043 139.6737
60.000000 83.997 139.2481
60.799999 83.987 138.9335
61.500000 83.990 138.4335
62.200001 83.976 137.7017
63.000000 83.921 136.7864
64.000000 83.834 135.9203
65.000000 83.826 135.2509
66.000000 83.846 133.9611
67.000000 83.720 132.8322
68.000000 83.603 133.0470
69.000000 83.631 133.2963
70.000000 83.642 132.9842
71.000000 83.605 132.6592
72.000000 83.559 132.2877
73.000000 83.514 131.8197
74.000000 83.480 131.2375
75.000000 83.463 130.5217
76.199997 83.438 129.5143
77.500000 83.396 128.6335
78.800003 83.366 127.8844
80.000000 83.329 127.2249
81.199997 83.275 126.5127
82.500000 83.188 125.8823
83.800003 83.147 125.3898
85.000000 83.137 124.6686
86.199997 83.104 123.8712
87.500000 83.049 123.2040
88.500000 83.012 122.8331
90.000000 82.964 122.2014
91.199997 82.897 121.5457
92.500000 82.807 120.9476
93.800003 82.756 120.3363
95.000000 82.728 119.6473
96.199997 82.704 119.1401
97.500000 82.723 118.9974
98.800003 82.833 118.9569
100.000000 82.954 118.2053
101.500000 82.872 116.7153
103.000000 82.674 116.2678
104.400002 82.558 115.8868
106.000000 82.451 115.2468
107.500000 82.389 114.5940
109.000000 82.353 113.9177
110.599998 82.326 113.2970
112.000000 82.316 112.9614
113.800003 82.325 112.6669
115.000000 82.317 112.5123
117.199997 82.269 112.2032
118.000000 82.246 111.9160
120.599998 82.133 110.1317
122.000000 82.059 109.1362
124.099998 82.002 108.4035
125.000000 81.983 108.2324
126.500000 81.922 107.9921
128.000000 81.867 107.4358
131.500000 82.137 103.2432
132.000000 82.247 102.3434
134.000000 82.489 98.3453
136.000000 82.117 98.6132
138.000000 81.850 102.3131
140.000000 81.666 104.2905
143.000000 81.448 104.5659
145.000000 81.533 104.3694
147.500000 81.798 104.3649
150.000000 81.990 103.7722
152.500000 81.999 102.5178
155.000000 81.997 101.0989
157.500000 82.014 99.5195
160.000000 81.997 98.0818
162.500000 81.951 96.7107
165.000000 81.858 95.0342
167.500000 81.721 93.5419
170.000000 81.658 92.8353
172.500000 81.670 92.1879
175.000000 81.653 91.3614
177.500000 81.606 90.5601
180.000000 81.561 89.8668
182.500000 81.511 89.1848
185.000000 81.463 88.4275
187.500000 81.417 87.6185
190.000000 81.370 86.9282
192.500000 81.331 86.2963
195.000000 81.286 85.6096
197.500000 81.211 84.8206
200.000000 81.089 84.1475
203.000000 81.031 83.8344
206.000000 81.090 83.2198
209.000000 81.087 82.5261
212.000000 81.041 81.8508
214.000000 81.014 81.3260
218.000000 80.985 80.4336
220.000000 80.976 80.0894
224.000000 80.944 79.3127
227.000000 80.914 78.6324
230.000000 80.893 77.9357
233.000000 80.886 77.3171
236.000000 80.874 76.7216
240.000000 80.817 75.9128
243.000000 80.769 75.3367
247.000000 80.706 74.6132
250.000000 80.666 74.0953
254.000000 80.651 73.3722
258.000000 80.632 72.6969
262.000000 80.599 72.0857
265.000000 80.571 71.6285
269.000000 80.536 71.0219
272.000000 80.515 70.5696
276.000000 80.493 69.9782
280.000000 80.476 69.3957
285.000000 80.449 68.7104
290.000000 80.432 67.9822
295.000000 80.425 67.2029
300.000000 80.401 66.4253
304.000000 80.381 65.8178
307.000000 80.366 65.4081
311.000000 80.341 64.9094
315.000000 80.314 64.3954
320.000000 80.279 63.7635
325.000000 80.246 63.1978
330.000000 80.216 62.6519
335.000000 80.190 62.1190
340.000000 80.161 61.6230
345.000000 80.133 61.1525
350.000000 80.116 60.6895
355.000000 80.120 60.3118
360.000000 80.129 59.9138
365.000000 80.136 59.4448
370.000000 80.136 58.9355
375.000000 80.126 58.4135
382.000000 80.099 57.7209
387.000000 80.078 57.2355
395.000000 80.045 56.5400
400.000000 80.025 56.1418
406.000000 80.007 55.6879
412.000000 79.991 55.2719
418.000000 79.976 54.8960
425.000000 79.960 54.4616
431.000000 79.946 54.1049
437.000000 79.933 53.7755
444.000000 79.923 53.4268
450.000000 79.919 53.1129
455.000000 79.911 52.8302
462.000000 79.896 52.4678
468.000000 79.881 52.2195
475.000000 79.866 51.9272
482.000000 79.856 51.6251
487.000000 79.852 51.4256
494.000000 79.854 51.1545
500.000000 79.852 50.9166
508.000000 79.840 50.6205
515.000000 79.835 50.4186
522.000000 79.835 50.2517
530.000000 79.839 50.0398
538.000000 79.844 49.8152
545.000000 79.846 49.6237
552.000000 79.846 49.4424
560.000000 79.844 49.2581
570.000000 79.847 49.0759
580.000000 79.850 48.9262
590.000000 79.859 48.8064
600.000000 79.873 48.7230
608.000000 79.883 48.6235
615.000000 79.892 48.5517
622.000000 79.902 48.5014
630.000000 79.916 48.4319
640.000000 79.929 48.3341
650.000000 79.940 48.2427
660.000000 79.960 48.2410
670.000000 79.986 48.2783
680.000000 80.012 48.3002
690.000000 80.038 48.3098
700.000000 80.066 48.3451
710.000000 80.101 48.3807
720.000000 80.136 48.4164
730.000000 80.173 48.4702
740.000000 80.214 48.5489
750.000000 80.258 48.6405
762.000000 80.304 48.7474
775.000000 80.357 48.8789
788.000000 80.420 49.0246
800.000000 80.485 49.1607
812.000000 80.551 49.2733
825.000000 80.624 49.4127
838.000000 80.705 49.5814
850.000000 80.785 49.7217
862.000000 80.868 49.8417
875.000000 80.961 49.9714
885.000000 81.032 50.0483
900.000000 81.144 50.1405
912.000000 81.242 50.2130
925.000000 81.354 50.2664
938.000000 81.468 50.3032
950.000000 81.571 50.3123
962.000000 81.675 50.2793
975.000000 81.790 50.2313
988.000000 81.906 50.1689
1000.000000 82.012 50.0663
1015.000000 82.144 49.8787
1030.000000 82.277 49.6539
1044.000000 82.402 49.4231
1060.000000 82.540 49.1342
1075.000000 82.667 48.8188
1090.000000 82.791 48.4604
1106.000000 82.917 48.0712
1120.000000 83.022 47.7209
1138.000000 83.155 47.2382
1150.000000 83.242 46.8967
1172.000000 83.396 46.2344
1180.000000 83.450 45.9923
1206.000000 83.610 45.2040
1220.000000 83.692 44.7711
1241.000000 83.811 44.1346
1250.000000 83.858 43.8528
1265.000000 83.933 43.3661
1280.000000 84.005 42.8901
1315.000000 84.165 41.8336
1320.000000 84.186 41.6856
1340.000000 84.270 41.0920
1360.000000 84.352 40.5165
1380.000000 84.431 39.9652
1400.000000 84.504 39.4315
1430.000000 84.606 38.6201
1450.000000 84.669 38.1086
1475.000000 84.748 37.4941
1500.000000 84.823 36.8948
1525.000000 84.897 36.3204
1550.000000 84.970 35.7496
1575.000000 85.039 35.1981
1600.000000 85.104 34.6853
1625.000000 85.167 34.1864
1650.000000 85.230 33.6904
1675.000000 85.293 33.2094
1700.000000 85.352 32.7443
1725.000000 85.410 32.2862
1750.000000 85.466 31.8381
1775.000000 85.521 31.3989
1800.000000 85.576 30.9800
1825.000000 85.631 30.5679
1850.000000 85.686 30.1614
1875.000000 85.738 29.7724
1900.000000 85.790 29.4026
1925.000000 85.840 29.0382
1950.000000 85.890 28.6683
1975.000000 85.940 28.2954
2000.000000 85.990 27.9312
2030.000000 86.048 27.5212
2060.000000 86.107 27.1419
2090.000000 86.166 26.7822
2120.000000 86.224 26.4399
2140.000000 86.263 26.2145
2180.000000 86.344 25.7668
2200.000000 86.387 25.5555
2240.000000 86.475 25.1367
2270.000000 86.543 24.8271
2300.000000 86.611 24.5260
2330.000000 86.683 24.2255
2360.000000 86.757 23.9215
2400.000000 86.860 23.5222
2430.000000 86.940 23.2146
2470.000000 87.053 22.7641
2500.000000 87.141 22.3887
2540.000000 87.261 21.8281
2580.000000 87.381 21.2192
2620.000000 87.497 20.5705
2650.000000 87.581 20.0530
2690.000000 87.692 19.3244
2720.000000 87.775 18.7563
2760.000000 87.883 17.9626
2800.000000 87.988 17.0846
2850.000000 88.108 15.8510
2900.000000 88.201 14.4854
2950.000000 88.256 13.0613
3000.000000 88.274 11.6671
3040.000000 88.264 10.6499
3070.000000 88.246 9.9611
3110.000000 88.214 9.1443
3150.000000 88.177 8.4501
3200.000000 88.131 7.7379
3250.000000 88.088 7.1547
3300.000000 88.053 6.6785
3350.000000 88.027 6.2596
3400.000000 88.008 5.8722
3450.000000 87.996 5.5086
3500.000000 87.987 5.1779
3550.000000 87.980 4.8647
3600.000000 87.977 4.5740
3650.000000 87.979 4.3062
3700.000000 87.988 4.0484
3750.000000 88.005 3.7987
3820.000000 88.043 3.4501
3870.000000 88.080 3.1743
3950.000000 88.155 2.6125
4000.000000 88.211 2.1719
4060.000000 88.284 1.5352
4120.000000 88.361 0.7527
4180.000000 88.437 -0.1996
4250.000000 88.514 -1.5679
4310.000000 88.558 -2.9798
4370.000000 88.574 -4.5825
4440.000000 88.544 -6.6389
4500.000000 88.466 -8.4940
4550.000000 88.362 -10.0431
4620.000000 88.157 -12.1285
4680.000000 87.932 -13.7715
4750.000000 87.619 -15.4454
4820.000000 87.263 -16.7870
4870.000000 86.986 -17.5275
4940.000000 86.576 -18.2336
5000.000000 86.211 -18.5116
5080.000000 85.718 -18.4097
5150.000000 85.295 -17.9064
5220.000000 84.889 -17.0416
5300.000000 84.456 -15.6405
5380.000000 84.072 -13.8710
5450.000000 83.790 -12.1276
5520.000000 83.566 -10.4023
5600.000000 83.337 -8.7878
5700.000000 82.940 -6.6644
5800.000000 82.591 -2.9379
5900.000000 82.532 0.5994
6000.000000 82.446 2.6118
6080.000000 82.231 4.7562
6150.000000 82.099 7.4411
6220.000000 82.075 10.2930
6300.000000 82.140 13.3456
6400.000000 82.303 16.7911
6500.000000 82.535 19.8917
6600.000000 82.837 22.6178
6700.000000 83.204 24.8929
6800.000000 83.628 26.6287
6900.000000 84.099 27.6952
7000.000000 84.596 27.9661
7100.000000 85.097 27.2972
7200.000000 85.570 25.5783
7300.000000 85.965 22.7795
7400.000000 86.224 18.9923
7500.000000 86.296 14.4883
7620.000000 86.096 8.7737
7750.000000 85.536 3.2087
7880.000000 84.705 -0.8928
8000.000000 83.798 -3.1213
8120.000000 82.838 -3.8866
8250.000000 81.808 -3.3064
8380.000000 80.833 -1.6188
8500.000000 79.998 0.6903
8620.000000 79.228 3.5747
8750.000000 78.467 7.1741
8850.000000 77.932 10.1954
9000.000000 77.208 15.0626
9120.000000 76.695 19.1913
9250.000000 76.207 23.8114
9380.000000 75.786 28.5731
9500.000000 75.454 33.0869
9620.000000 75.171 37.6548
9750.000000 74.919 42.5973
9880.000000 74.722 47.5122
10000.000000 74.595 52.0225
10150.000000 74.495 57.5945
10300.000000 74.462 63.0231
10440.000000 74.485 67.8754
10600.000000 74.554 73.2102
10750.000000 74.647 78.1202
10900.000000 74.781 83.0036
11060.000000 75.007 88.0703
11200.000000 75.290 92.2747
11380.000000 75.750 97.2717
11500.000000 76.104 100.2409
11720.000000 76.836 104.7046
11800.000000 77.120 106.0069
12060.000000 78.062 109.0452
12200.000000 78.563 109.9117
12410.000000 79.273 110.3780
12500.000000 79.559 110.3514
12650.000000 80.015 110.0797
12800.000000 80.455 109.6065
13150.000000 81.580 108.1777
13200.000000 81.784 107.8878
13400.000000 82.721 105.5880
13600.000000 83.662 100.5680
13800.000000 84.359 93.0504
14000.000000 84.743 84.4897
14300.000000 85.027 71.6763
14500.000000 85.186 62.1594
14750.000000 85.198 47.4313
15000.000000 84.616 29.7864
15250.000000 83.159 12.7357
15500.000000 81.009 -0.3245
15750.000000 78.475 -8.4359
16000.000000 75.803 -10.4171
16250.000000 73.658 -7.0596
16500.000000 72.804 -4.2423
16750.000000 72.357 -3.9677
17000.000000 73.550 0.5658
17250.000000 76.302 -11.2054
17500.000000 77.145 -47.1122
17750.000000 75.114 -83.6235
18000.000000 71.123 -104.2581
18250.000000 66.752 -114.6277
18500.000000 63.016 -122.3521
18750.000000 59.844 -129.8267
19000.000000 56.784 -134.8748
19250.000000 54.092 -137.9515
19500.000000 52.423 -145.6299
19750.000000 51.298 -158.9905
