* Measurement data measured by REW V5.20.9
* Source: Frequency Response Averaged data
* Format: Averaged data produced from the rms magnitudes of Jul 13, Jul 13
* Dated: 13/07/2022 8:09:57 PM
* REW Settings:
*  C-weighting compensation: Off
*  Target level: 75.0 dB
* Note: ; Averaged data produced from the rms magnitudes of Jul 13, Jul 13
* Measurement: E3000 R
* Smoothing: 1/24 octave
* Frequency Step: 1/48 octave
* Start Frequency: 2.200 Hz
*
* Freq(Hz) SPL(dB)
2.200000 64.081
2.240000 64.390
2.270000 64.622
2.300000 64.854
2.330000 65.086
2.360000 65.318
2.400000 65.627
2.430000 65.859
2.470000 66.168
2.500000 66.400
2.540000 66.709
2.580000 67.025
2.620000 67.357
2.650000 67.614
2.690000 67.961
2.720000 68.223
2.760000 68.571
2.800000 68.912
2.850000 69.323
2.900000 69.707
2.950000 70.058
3.000000 70.380
3.040000 70.620
3.070000 70.791
3.110000 71.011
3.150000 71.223
3.200000 71.480
3.250000 71.733
3.300000 71.987
3.350000 72.238
3.400000 72.483
3.450000 72.721
3.500000 72.953
3.550000 73.178
3.600000 73.397
3.650000 73.610
3.700000 73.816
3.750000 74.014
3.820000 74.281
3.870000 74.464
3.950000 74.749
4.000000 74.922
4.060000 75.126
4.120000 75.323
4.180000 75.514
4.250000 75.730
4.310000 75.911
4.370000 76.089
4.440000 76.292
4.500000 76.462
4.550000 76.600
4.620000 76.789
4.680000 76.948
4.750000 77.130
4.820000 77.309
4.870000 77.433
4.940000 77.604
5.000000 77.748
5.080000 77.936
5.150000 78.097
5.220000 78.255
5.300000 78.432
5.380000 78.605
5.450000 78.753
5.520000 78.898
5.600000 79.061
5.700000 79.258
5.800000 79.450
5.900000 79.638
6.000000 79.820
6.080000 79.962
6.150000 80.085
6.220000 80.206
6.300000 80.342
6.400000 80.508
6.500000 80.672
6.600000 80.833
6.700000 80.992
6.800000 81.148
6.900000 81.302
7.000000 81.455
7.100000 81.606
7.200000 81.756
7.300000 81.903
7.400000 82.050
7.500000 82.194
7.620000 82.365
7.750000 82.546
7.880000 82.724
8.000000 82.884
8.120000 83.041
8.250000 83.205
8.380000 83.365
8.500000 83.508
8.620000 83.647
8.750000 83.792
8.850000 83.901
9.000000 84.058
9.120000 84.180
9.250000 84.308
9.380000 84.431
9.500000 84.544
9.620000 84.654
9.750000 84.771
9.880000 84.888
10.000000 84.996
10.150000 85.131
10.300000 85.268
10.440000 85.397
10.600000 85.548
10.750000 85.691
10.900000 85.837
11.060000 85.993
11.200000 86.129
11.380000 86.302
11.500000 86.414
11.720000 86.612
11.800000 86.680
12.060000 86.890
12.200000 86.995
12.410000 87.143
12.500000 87.204
12.650000 87.302
12.800000 87.399
13.150000 87.624
13.200000 87.657
13.400000 87.790
13.600000 87.923
13.800000 88.058
14.000000 88.186
14.300000 88.365
14.500000 88.470
14.750000 88.585
15.000000 88.684
15.250000 88.776
15.500000 88.871
15.750000 88.977
16.000000 89.101
16.250000 89.240
16.500000 89.390
16.750000 89.543
17.000000 89.689
17.250000 89.823
17.500000 89.940
17.750000 90.042
18.000000 90.132
18.250000 90.215
18.500000 90.295
18.750000 90.376
19.000000 90.459
19.250000 90.543
19.500000 90.629
19.750000 90.716
20.000000 90.803
20.299999 90.908
20.600000 91.013
20.900000 91.117
21.200001 91.219
21.400000 91.285
21.799999 91.410
22.000000 91.471
22.400000 91.589
22.700001 91.678
23.000000 91.767
23.299999 91.856
23.600000 91.941
24.000000 92.046
24.299999 92.117
24.700001 92.206
25.000000 92.273
25.400000 92.364
25.799999 92.456
26.200001 92.545
26.500000 92.609
26.900000 92.692
27.200001 92.758
27.600000 92.851
28.000000 92.948
28.500000 93.063
29.000000 93.161
29.500000 93.252
30.000000 93.348
30.400000 93.430
30.700001 93.489
31.100000 93.562
31.500000 93.632
32.000000 93.730
32.500000 93.844
33.000000 93.951
33.500000 94.020
34.000000 94.048
34.500000 94.070
35.000000 94.120
35.500000 94.200
36.000000 94.284
36.500000 94.355
37.000000 94.416
37.500000 94.478
38.200001 94.565
38.700001 94.618
39.500000 94.687
40.000000 94.733
40.599998 94.791
41.200001 94.847
41.799999 94.899
42.500000 94.956
43.099998 95.004
43.700001 95.051
44.400002 95.107
45.000000 95.162
45.500000 95.207
46.200001 95.261
46.799999 95.301
47.500000 95.348
48.200001 95.389
48.700001 95.412
49.400002 95.453
50.000000 95.507
50.799999 95.567
51.500000 95.575
52.200001 95.566
53.000000 95.582
53.799999 95.616
54.500000 95.646
55.200001 95.678
56.000000 95.711
57.000000 95.754
58.000000 95.805
59.000000 95.828
60.000000 95.834
60.799999 95.850
61.500000 95.869
62.200001 95.889
63.000000 95.909
64.000000 95.918
65.000000 95.918
66.000000 95.931
67.000000 95.953
68.000000 95.967
69.000000 95.975
70.000000 95.979
71.000000 95.983
72.000000 95.988
73.000000 95.988
74.000000 95.985
75.000000 95.986
76.199997 95.985
77.500000 95.979
78.800003 95.970
80.000000 95.959
81.199997 95.949
82.500000 95.940
83.800003 95.929
85.000000 95.917
86.199997 95.906
87.500000 95.895
88.500000 95.879
90.000000 95.851
91.199997 95.829
92.500000 95.808
93.800003 95.787
95.000000 95.767
96.199997 95.745
97.500000 95.718
98.800003 95.689
100.000000 95.665
101.500000 95.641
103.000000 95.615
104.400002 95.585
106.000000 95.541
107.500000 95.496
109.000000 95.450
110.599998 95.407
112.000000 95.372
113.800003 95.332
115.000000 95.306
117.199997 95.247
118.000000 95.222
120.599998 95.144
122.000000 95.108
124.099998 95.047
125.000000 95.020
126.500000 94.980
128.000000 94.943
131.500000 94.850
132.000000 94.835
134.000000 94.763
136.000000 94.687
138.000000 94.617
140.000000 94.554
143.000000 94.459
145.000000 94.390
147.500000 94.290
150.000000 94.186
152.500000 94.105
155.000000 94.027
157.500000 93.938
160.000000 93.834
162.500000 93.720
165.000000 93.599
167.500000 93.488
170.000000 93.383
172.500000 93.268
175.000000 93.147
177.500000 93.019
180.000000 92.877
182.500000 92.720
185.000000 92.551
187.500000 92.385
190.000000 92.256
192.500000 92.218
195.000000 92.310
197.500000 92.517
200.000000 92.767
203.000000 93.028
206.000000 93.195
209.000000 93.261
212.000000 93.254
214.000000 93.225
218.000000 93.131
220.000000 93.075
224.000000 92.958
227.000000 92.870
230.000000 92.782
233.000000 92.692
236.000000 92.601
240.000000 92.484
243.000000 92.398
247.000000 92.289
250.000000 92.211
254.000000 92.101
258.000000 91.990
262.000000 91.885
265.000000 91.808
269.000000 91.710
272.000000 91.639
276.000000 91.545
280.000000 91.448
285.000000 91.331
290.000000 91.216
295.000000 91.102
300.000000 90.991
304.000000 90.904
307.000000 90.839
311.000000 90.753
315.000000 90.668
320.000000 90.566
325.000000 90.465
330.000000 90.364
335.000000 90.263
340.000000 90.165
345.000000 90.068
350.000000 89.974
355.000000 89.880
360.000000 89.788
365.000000 89.697
370.000000 89.608
375.000000 89.519
382.000000 89.397
387.000000 89.313
395.000000 89.185
400.000000 89.105
406.000000 89.007
412.000000 88.911
418.000000 88.816
425.000000 88.709
431.000000 88.619
437.000000 88.530
444.000000 88.422
450.000000 88.329
455.000000 88.262
462.000000 88.172
468.000000 88.091
475.000000 87.996
482.000000 87.904
487.000000 87.839
494.000000 87.749
500.000000 87.675
508.000000 87.576
515.000000 87.491
522.000000 87.407
530.000000 87.314
538.000000 87.224
545.000000 87.146
552.000000 87.071
560.000000 86.987
570.000000 86.883
580.000000 86.781
590.000000 86.682
600.000000 86.588
608.000000 86.514
615.000000 86.450
622.000000 86.388
630.000000 86.318
640.000000 86.229
650.000000 86.141
660.000000 86.067
670.000000 85.995
680.000000 85.920
690.000000 85.845
700.000000 85.773
710.000000 85.702
720.000000 85.631
730.000000 85.561
740.000000 85.493
750.000000 85.424
762.000000 85.334
775.000000 85.238
788.000000 85.145
800.000000 85.065
812.000000 85.000
825.000000 84.954
838.000000 84.940
850.000000 84.958
862.000000 85.007
875.000000 85.079
885.000000 85.141
900.000000 85.241
912.000000 85.323
925.000000 85.409
938.000000 85.493
950.000000 85.572
962.000000 85.652
975.000000 85.737
988.000000 85.820
1000.000000 85.897
1015.000000 85.992
1030.000000 86.087
1044.000000 86.175
1060.000000 86.273
1075.000000 86.361
1090.000000 86.447
1106.000000 86.537
1120.000000 86.611
1138.000000 86.700
1150.000000 86.756
1172.000000 86.855
1180.000000 86.889
1206.000000 86.987
1220.000000 87.031
1241.000000 87.089
1250.000000 87.111
1265.000000 87.142
1280.000000 87.166
1315.000000 87.188
1320.000000 87.188
1340.000000 87.175
1360.000000 87.146
1380.000000 87.100
1400.000000 87.037
1430.000000 86.919
1450.000000 86.834
1475.000000 86.735
1500.000000 86.656
1525.000000 86.608
1550.000000 86.594
1575.000000 86.608
1600.000000 86.648
1625.000000 86.709
1650.000000 86.785
1675.000000 86.872
1700.000000 86.965
1725.000000 87.063
1750.000000 87.162
1775.000000 87.261
1800.000000 87.361
1825.000000 87.462
1850.000000 87.563
1875.000000 87.664
1900.000000 87.765
1925.000000 87.865
1950.000000 87.964
1975.000000 88.064
2000.000000 88.164
2030.000000 88.282
2060.000000 88.400
2090.000000 88.516
2120.000000 88.631
2140.000000 88.706
2180.000000 88.855
2200.000000 88.927
2240.000000 89.069
2270.000000 89.171
2300.000000 89.269
2330.000000 89.362
2360.000000 89.450
2400.000000 89.558
2430.000000 89.635
2470.000000 89.738
2500.000000 89.824
2540.000000 89.973
2580.000000 90.183
2620.000000 90.450
2650.000000 90.662
2690.000000 90.917
2720.000000 91.070
2760.000000 91.221
2800.000000 91.323
2850.000000 91.405
2900.000000 91.452
2950.000000 91.475
3000.000000 91.480
3040.000000 91.473
3070.000000 91.463
3110.000000 91.444
3150.000000 91.419
3200.000000 91.386
3250.000000 91.350
3300.000000 91.306
3350.000000 91.249
3400.000000 91.175
3450.000000 91.088
3500.000000 90.991
3550.000000 90.890
3600.000000 90.791
3650.000000 90.699
3700.000000 90.611
3750.000000 90.529
3820.000000 90.425
3870.000000 90.359
3950.000000 90.265
4000.000000 90.212
4060.000000 90.144
4120.000000 90.067
4180.000000 89.973
4250.000000 89.845
4310.000000 89.727
4370.000000 89.612
4440.000000 89.492
4500.000000 89.405
4550.000000 89.341
4620.000000 89.264
4680.000000 89.206
4750.000000 89.146
4820.000000 89.096
4870.000000 89.068
4940.000000 89.042
5000.000000 89.037
5080.000000 89.047
5150.000000 89.069
5220.000000 89.098
5300.000000 89.139
5380.000000 89.185
5450.000000 89.231
5520.000000 89.281
5600.000000 89.344
5700.000000 89.433
5800.000000 89.527
5900.000000 89.621
6000.000000 89.713
6080.000000 89.789
6150.000000 89.859
6220.000000 89.930
6300.000000 90.013
6400.000000 90.110
6500.000000 90.193
6600.000000 90.253
6700.000000 90.289
6800.000000 90.298
6900.000000 90.284
7000.000000 90.250
7100.000000 90.203
7200.000000 90.143
7300.000000 90.073
7400.000000 89.992
7500.000000 89.906
7620.000000 89.800
7750.000000 89.685
7880.000000 89.574
8000.000000 89.483
8120.000000 89.407
8250.000000 89.337
8380.000000 89.272
8500.000000 89.208
8620.000000 89.129
8750.000000 89.008
8850.000000 88.881
9000.000000 88.622
9120.000000 88.348
9250.000000 87.978
9380.000000 87.538
9500.000000 87.071
9620.000000 86.543
9750.000000 85.898
9880.000000 85.180
10000.000000 84.473
10150.000000 83.657
10300.000000 83.033
10440.000000 82.448
10600.000000 81.712
10750.000000 81.019
10900.000000 80.348
11060.000000 79.667
11200.000000 79.111
11380.000000 78.469
11500.000000 78.098
11720.000000 77.605
11800.000000 77.504
12060.000000 77.474
12200.000000 77.579
12410.000000 77.716
12500.000000 77.731
12650.000000 77.684
12800.000000 77.562
13150.000000 77.148
13200.000000 77.089
13400.000000 76.870
13600.000000 76.680
13800.000000 76.521
14000.000000 76.395
14300.000000 76.256
14500.000000 76.196
14750.000000 76.145
15000.000000 76.083
15250.000000 75.964
15500.000000 75.738
15750.000000 75.363
16000.000000 74.846
16250.000000 74.260
16500.000000 73.740
16750.000000 73.445
17000.000000 73.531
17250.000000 74.094
17500.000000 75.066
17750.000000 76.089
18000.000000 76.613
18250.000000 76.254
18500.000000 75.063
18750.000000 73.437
19000.000000 71.777
19250.000000 70.253
19500.000000 68.817
19750.000000 67.429
