* Measurement data measured by REW V5.20.9
* Source: Frequency Response Averaged data
* Format: Averaged data produced from the rms magnitudes of Jul 11, Jul 11, Jul 11
* Dated: 11/07/2022 8:40:06 PM
* REW Settings:
*  C-weighting compensation: Off
*  Target level: 75.0 dB
* Note: ; Averaged data produced from the rms magnitudes of Jul 11, Jul 11, Jul 11
* Measurement: Final E5000 - L
* Smoothing: 1/24 octave
* Frequency Step: 1/48 octave
* Start Frequency: 2.200 Hz
*
* Freq(Hz) SPL(dB)
2.200000 69.590
2.240000 69.844
2.270000 70.034
2.300000 70.224
2.330000 70.414
2.360000 70.604
2.400000 70.857
2.430000 71.047
2.470000 71.300
2.500000 71.490
2.540000 71.744
2.580000 72.003
2.620000 72.279
2.650000 72.492
2.690000 72.782
2.720000 73.000
2.760000 73.290
2.800000 73.574
2.850000 73.915
2.900000 74.231
2.950000 74.515
3.000000 74.771
3.040000 74.959
3.070000 75.092
3.110000 75.261
3.150000 75.423
3.200000 75.620
3.250000 75.816
3.300000 76.015
3.350000 76.215
3.400000 76.410
3.450000 76.601
3.500000 76.788
3.550000 76.971
3.600000 77.150
3.650000 77.326
3.700000 77.497
3.750000 77.664
3.820000 77.889
3.870000 78.047
3.950000 78.295
4.000000 78.448
4.060000 78.633
4.120000 78.815
4.180000 78.995
4.250000 79.203
4.310000 79.379
4.370000 79.555
4.440000 79.759
4.500000 79.933
4.550000 80.078
4.620000 80.278
4.680000 80.448
4.750000 80.642
4.820000 80.833
4.870000 80.967
4.940000 81.153
5.000000 81.310
5.080000 81.513
5.150000 81.685
5.220000 81.853
5.300000 82.039
5.380000 82.219
5.450000 82.370
5.520000 82.516
5.600000 82.674
5.700000 82.862
5.800000 83.040
5.900000 83.208
6.000000 83.365
6.080000 83.484
6.150000 83.584
6.220000 83.683
6.300000 83.792
6.400000 83.922
6.500000 84.049
6.600000 84.175
6.700000 84.302
6.800000 84.427
6.900000 84.554
7.000000 84.685
7.100000 84.818
7.200000 84.953
7.300000 85.091
7.400000 85.230
7.500000 85.372
7.620000 85.543
7.750000 85.725
7.880000 85.906
8.000000 86.067
8.120000 86.221
8.250000 86.381
8.380000 86.532
8.500000 86.661
8.620000 86.782
8.750000 86.906
8.850000 86.997
9.000000 87.124
9.120000 87.221
9.250000 87.326
9.380000 87.428
9.500000 87.523
9.620000 87.621
9.750000 87.728
9.880000 87.838
10.000000 87.941
10.150000 88.073
10.300000 88.205
10.440000 88.328
10.600000 88.466
10.750000 88.591
10.900000 88.712
11.060000 88.837
11.200000 88.940
11.380000 89.071
11.500000 89.156
11.720000 89.312
11.800000 89.369
12.060000 89.558
12.200000 89.662
12.410000 89.820
12.500000 89.886
12.650000 89.996
12.800000 90.102
13.150000 90.316
13.200000 90.342
13.400000 90.433
13.600000 90.505
13.800000 90.557
14.000000 90.595
14.300000 90.638
14.500000 90.668
14.750000 90.723
15.000000 90.806
15.250000 90.926
15.500000 91.076
15.750000 91.251
16.000000 91.437
16.250000 91.618
16.500000 91.784
16.750000 91.924
17.000000 92.033
17.250000 92.113
17.500000 92.166
17.750000 92.204
18.000000 92.232
18.250000 92.261
18.500000 92.299
18.750000 92.347
19.000000 92.406
19.250000 92.470
19.500000 92.535
19.750000 92.597
20.000000 92.653
20.299999 92.713
20.600000 92.768
20.900000 92.823
21.200001 92.881
21.400000 92.922
21.799999 93.006
22.000000 93.047
22.400000 93.123
22.700001 93.174
23.000000 93.220
23.299999 93.265
23.600000 93.310
24.000000 93.371
24.299999 93.418
24.700001 93.477
25.000000 93.519
25.400000 93.572
25.799999 93.622
26.200001 93.675
26.500000 93.716
26.900000 93.768
27.200001 93.803
27.600000 93.837
28.000000 93.860
28.500000 93.885
29.000000 93.921
29.500000 93.972
30.000000 94.023
30.400000 94.053
30.700001 94.069
31.100000 94.086
31.500000 94.101
32.000000 94.119
32.500000 94.128
33.000000 94.134
33.500000 94.149
34.000000 94.181
34.500000 94.216
35.000000 94.237
35.500000 94.243
36.000000 94.248
36.500000 94.263
37.000000 94.282
37.500000 94.290
38.200001 94.279
38.700001 94.270
39.500000 94.273
40.000000 94.279
40.599998 94.282
41.200001 94.278
41.799999 94.271
42.500000 94.264
43.099998 94.260
43.700001 94.257
44.400002 94.247
45.000000 94.232
45.500000 94.216
46.200001 94.195
46.799999 94.188
47.500000 94.177
48.200001 94.128
48.700001 94.067
49.400002 93.996
50.000000 93.988
50.799999 94.020
51.500000 94.020
52.200001 93.989
53.000000 93.951
53.799999 93.924
54.500000 93.909
55.200001 93.897
56.000000 93.864
57.000000 93.793
58.000000 93.732
59.000000 93.689
60.000000 93.652
60.799999 93.625
61.500000 93.593
62.200001 93.551
63.000000 93.504
64.000000 93.449
65.000000 93.386
66.000000 93.336
67.000000 93.299
68.000000 93.245
69.000000 93.191
70.000000 93.147
71.000000 93.094
72.000000 93.034
73.000000 92.983
74.000000 92.935
75.000000 92.877
76.199997 92.803
77.500000 92.731
78.800003 92.659
80.000000 92.586
81.199997 92.525
82.500000 92.461
83.800003 92.388
85.000000 92.318
86.199997 92.252
87.500000 92.185
88.500000 92.132
90.000000 92.047
91.199997 91.975
92.500000 91.899
93.800003 91.825
95.000000 91.763
96.199997 91.708
97.500000 91.652
98.800003 91.605
100.000000 91.556
101.500000 91.470
103.000000 91.366
104.400002 91.245
106.000000 91.090
107.500000 90.974
109.000000 90.921
110.599998 90.958
112.000000 91.038
113.800003 91.016
115.000000 90.893
117.199997 90.599
118.000000 90.523
120.599998 90.417
122.000000 90.371
124.099998 90.271
125.000000 90.227
126.500000 90.162
128.000000 90.099
131.500000 89.902
132.000000 89.861
134.000000 89.716
136.000000 89.652
138.000000 89.610
140.000000 89.546
143.000000 89.418
145.000000 89.342
147.500000 89.250
150.000000 89.155
152.500000 89.040
155.000000 88.914
157.500000 88.799
160.000000 88.714
162.500000 88.643
165.000000 88.548
167.500000 88.444
170.000000 88.375
172.500000 88.344
175.000000 88.321
177.500000 88.292
180.000000 88.247
182.500000 88.198
185.000000 88.144
187.500000 88.077
190.000000 88.008
192.500000 87.935
195.000000 87.853
197.500000 87.766
200.000000 87.682
203.000000 87.595
206.000000 87.510
209.000000 87.421
212.000000 87.331
214.000000 87.273
218.000000 87.161
220.000000 87.106
224.000000 86.998
227.000000 86.917
230.000000 86.839
233.000000 86.761
236.000000 86.684
240.000000 86.582
243.000000 86.508
247.000000 86.411
250.000000 86.339
254.000000 86.251
258.000000 86.165
262.000000 86.076
265.000000 86.009
269.000000 85.924
272.000000 85.861
276.000000 85.779
280.000000 85.698
285.000000 85.598
290.000000 85.499
295.000000 85.401
300.000000 85.306
304.000000 85.231
307.000000 85.176
311.000000 85.107
315.000000 85.041
320.000000 84.960
325.000000 84.883
330.000000 84.806
335.000000 84.728
340.000000 84.651
345.000000 84.579
350.000000 84.507
355.000000 84.438
360.000000 84.370
365.000000 84.303
370.000000 84.239
375.000000 84.178
382.000000 84.093
387.000000 84.031
395.000000 83.939
400.000000 83.882
406.000000 83.816
412.000000 83.751
418.000000 83.688
425.000000 83.618
431.000000 83.557
437.000000 83.498
444.000000 83.429
450.000000 83.373
455.000000 83.328
462.000000 83.270
468.000000 83.220
475.000000 83.163
482.000000 83.107
487.000000 83.068
494.000000 83.015
500.000000 82.971
508.000000 82.915
515.000000 82.867
522.000000 82.819
530.000000 82.767
538.000000 82.720
545.000000 82.679
552.000000 82.640
560.000000 82.597
570.000000 82.547
580.000000 82.499
590.000000 82.453
600.000000 82.409
608.000000 82.378
615.000000 82.352
622.000000 82.328
630.000000 82.302
640.000000 82.273
650.000000 82.249
660.000000 82.226
670.000000 82.207
680.000000 82.190
690.000000 82.178
700.000000 82.170
710.000000 82.165
720.000000 82.163
730.000000 82.166
740.000000 82.172
750.000000 82.183
762.000000 82.199
775.000000 82.223
788.000000 82.254
800.000000 82.288
812.000000 82.328
825.000000 82.379
838.000000 82.433
850.000000 82.488
862.000000 82.548
875.000000 82.616
885.000000 82.669
900.000000 82.750
912.000000 82.812
925.000000 82.878
938.000000 82.937
950.000000 82.983
962.000000 83.023
975.000000 83.054
988.000000 83.071
1000.000000 83.077
1015.000000 83.070
1030.000000 83.054
1044.000000 83.037
1060.000000 83.021
1075.000000 83.015
1090.000000 83.023
1106.000000 83.049
1120.000000 83.086
1138.000000 83.149
1150.000000 83.198
1172.000000 83.301
1180.000000 83.342
1206.000000 83.480
1220.000000 83.554
1241.000000 83.660
1250.000000 83.702
1265.000000 83.771
1280.000000 83.834
1315.000000 83.947
1320.000000 83.960
1340.000000 84.004
1360.000000 84.039
1380.000000 84.064
1400.000000 84.083
1430.000000 84.108
1450.000000 84.127
1475.000000 84.153
1500.000000 84.182
1525.000000 84.215
1550.000000 84.250
1575.000000 84.290
1600.000000 84.330
1625.000000 84.373
1650.000000 84.417
1675.000000 84.463
1700.000000 84.508
1725.000000 84.554
1750.000000 84.601
1775.000000 84.647
1800.000000 84.693
1825.000000 84.740
1850.000000 84.788
1875.000000 84.837
1900.000000 84.887
1925.000000 84.935
1950.000000 84.981
1975.000000 85.026
2000.000000 85.068
2030.000000 85.117
2060.000000 85.167
2090.000000 85.218
2120.000000 85.268
2140.000000 85.301
2180.000000 85.365
2200.000000 85.396
2240.000000 85.454
2270.000000 85.494
2300.000000 85.534
2330.000000 85.576
2360.000000 85.624
2400.000000 85.710
2430.000000 85.808
2470.000000 86.001
2500.000000 86.191
2540.000000 86.468
2580.000000 86.709
2620.000000 86.877
2650.000000 86.962
2690.000000 87.058
2720.000000 87.145
2760.000000 87.289
2800.000000 87.429
2850.000000 87.548
2900.000000 87.607
2950.000000 87.635
3000.000000 87.645
3040.000000 87.646
3070.000000 87.641
3110.000000 87.629
3150.000000 87.611
3200.000000 87.579
3250.000000 87.538
3300.000000 87.487
3350.000000 87.427
3400.000000 87.358
3450.000000 87.280
3500.000000 87.192
3550.000000 87.096
3600.000000 86.992
3650.000000 86.879
3700.000000 86.755
3750.000000 86.621
3820.000000 86.420
3870.000000 86.270
3950.000000 86.023
4000.000000 85.861
4060.000000 85.654
4120.000000 85.434
4180.000000 85.203
4250.000000 84.935
4310.000000 84.718
4370.000000 84.516
4440.000000 84.292
4500.000000 84.107
4550.000000 83.955
4620.000000 83.745
4680.000000 83.567
4750.000000 83.363
4820.000000 83.168
4870.000000 83.032
4940.000000 82.848
5000.000000 82.701
5080.000000 82.524
5150.000000 82.389
5220.000000 82.268
5300.000000 82.143
5380.000000 82.033
5450.000000 81.942
5520.000000 81.851
5600.000000 81.745
5700.000000 81.608
5800.000000 81.479
5900.000000 81.380
6000.000000 81.324
6080.000000 81.318
6150.000000 81.343
6220.000000 81.394
6300.000000 81.477
6400.000000 81.620
6500.000000 81.804
6600.000000 82.027
6700.000000 82.290
6800.000000 82.591
6900.000000 82.933
7000.000000 83.318
7100.000000 83.746
7200.000000 84.217
7300.000000 84.723
7400.000000 85.259
7500.000000 85.813
7620.000000 86.477
7750.000000 87.147
7880.000000 87.693
8000.000000 88.019
8120.000000 88.129
8250.000000 87.988
8380.000000 87.612
8500.000000 87.116
8620.000000 86.543
8750.000000 85.904
8850.000000 85.437
9000.000000 84.813
9120.000000 84.399
9250.000000 84.047
9380.000000 83.802
9500.000000 83.670
9620.000000 83.631
9750.000000 83.685
9880.000000 83.827
10000.000000 84.000
10150.000000 84.214
10300.000000 84.398
10440.000000 84.483
10600.000000 84.398
10750.000000 84.125
10900.000000 83.702
11060.000000 83.163
11200.000000 82.689
11380.000000 82.167
11500.000000 81.906
11720.000000 81.629
11800.000000 81.585
12060.000000 81.525
12200.000000 81.428
12410.000000 80.996
12500.000000 80.673
12650.000000 79.951
12800.000000 79.047
13150.000000 76.654
13200.000000 76.318
13400.000000 75.052
13600.000000 73.928
13800.000000 72.933
14000.000000 72.022
14300.000000 70.702
14500.000000 69.789
14750.000000 68.578
15000.000000 67.338
15250.000000 66.165
15500.000000 65.133
15750.000000 64.220
16000.000000 63.389
16250.000000 62.592
16500.000000 61.758
16750.000000 60.846
17000.000000 59.887
17250.000000 58.937
17500.000000 58.032
17750.000000 57.241
18000.000000 56.750
18250.000000 56.883
18500.000000 57.994
18750.000000 59.823
19000.000000 61.604
19250.000000 62.810
19500.000000 63.326
19750.000000 63.217
