* Measurement data measured by REW V5.20.9
* Source: Input device not selected, no input selected, L, volume: no control. Timing signal peak level -27.8 dBFS, measurement signal peak level -26.8 dBFS
* Format: 256k Log Swept Sine, 1 sweep at -12.0 dBFS using an acoustic timing reference
* Dated: 20/05/2024 8:54:45 PM
* REW Settings:
*  C-weighting compensation: Off
*  Target level: 75.0 dB
* Note: ; Delay -0.0412 ms (-14 mm, -0.56 in) using estimated IR delay relative to Acoustic reference on  L with no timing offset
* Measurement: EA1000 Black L
* Smoothing: 1/24 octave
* Frequency Step: 1/48 octave
* Start Frequency: 1.000 Hz
*
* Freq(Hz) SPL(dB) Phase(degrees)
1.000000 41.242 135.2925
1.015000 41.254 134.4368
1.030000 41.268 133.5930
1.044000 41.284 132.8181
1.060000 41.304 131.9497
1.075000 41.326 131.1547
1.090000 41.351 130.3804
1.106000 41.380 129.5786
1.120000 41.408 128.8916
1.138000 41.446 128.0253
1.150000 41.473 127.4574
1.172000 41.525 126.4345
1.180000 41.545 126.0679
1.206000 41.613 124.8932
1.220000 41.653 124.2700
1.241000 41.714 123.3451
1.250000 41.742 122.9517
1.265000 41.789 122.2993
1.280000 41.838 121.6499
1.315000 41.959 120.1405
1.320000 41.977 119.9250
1.340000 42.051 119.0616
1.360000 42.129 118.1942
1.380000 42.210 117.3203
1.400000 42.294 116.4374
1.430000 42.425 115.0906
1.450000 42.517 114.1742
1.475000 42.636 113.0036
1.500000 42.761 111.8066
1.525000 42.893 110.5877
1.550000 43.031 109.3513
1.575000 43.174 108.1016
1.600000 43.323 106.8431
1.625000 43.476 105.5801
1.650000 43.633 104.3169
1.675000 43.795 103.0579
1.700000 43.959 101.8074
1.725000 44.127 100.5699
1.750000 44.297 99.3496
1.775000 44.469 98.1508
1.800000 44.643 96.9780
1.825000 44.818 95.8355
1.850000 44.995 94.7230
1.875000 45.177 93.6309
1.900000 45.363 92.5574
1.925000 45.553 91.5011
1.950000 45.747 90.4608
1.975000 45.943 89.4351
2.000000 46.142 88.4227
2.030000 46.383 87.2235
2.060000 46.625 86.0392
2.090000 46.869 84.8676
2.120000 47.112 83.7063
2.140000 47.273 82.9366
2.180000 47.594 81.4054
2.200000 47.752 80.6424
2.240000 48.070 79.1284
2.270000 48.311 78.0059
2.300000 48.552 76.8946
2.330000 48.794 75.7947
2.360000 49.036 74.7063
2.400000 49.358 73.2732
2.430000 49.599 72.2121
2.470000 49.917 70.8159
2.500000 50.154 69.7828
2.540000 50.465 68.4244
2.580000 50.772 67.0879
2.620000 51.075 65.7731
2.650000 51.301 64.8012
2.690000 51.601 63.5240
2.720000 51.823 62.5800
2.760000 52.117 61.3399
2.800000 52.408 60.1208
2.850000 52.766 58.6261
2.900000 53.118 57.1636
2.950000 53.463 55.7339
3.000000 53.802 54.3429
3.040000 54.069 53.2567
3.070000 54.266 52.4561
3.110000 54.526 51.4060
3.150000 54.783 50.3736
3.200000 55.098 49.1051
3.250000 55.409 47.8570
3.300000 55.714 46.6256
3.350000 56.014 45.4118
3.400000 56.308 44.2192
3.450000 56.596 43.0489
3.500000 56.879 41.9019
3.550000 57.157 40.7794
3.600000 57.431 39.6824
3.650000 57.702 38.6122
3.700000 57.969 37.5718
3.750000 58.231 36.5641
3.820000 58.590 35.2002
3.870000 58.841 34.2532
3.950000 59.237 32.7728
4.000000 59.481 31.8621
4.060000 59.769 30.7792
4.120000 60.053 29.7168
4.180000 60.332 28.6756
4.250000 60.652 27.4861
4.310000 60.922 26.4865
4.370000 61.188 25.5042
4.440000 61.495 24.3815
4.500000 61.754 23.4444
4.550000 61.967 22.6785
4.620000 62.260 21.6236
4.680000 62.508 20.7306
4.750000 62.794 19.6954
4.820000 63.075 18.6662
4.870000 63.273 17.9387
4.940000 63.546 16.9303
5.000000 63.777 16.0749
5.080000 64.079 14.9461
5.150000 64.339 13.9687
5.220000 64.595 13.0020
5.300000 64.881 11.9103
5.380000 65.163 10.8312
5.450000 65.404 9.8964
5.520000 65.641 8.9695
5.600000 65.907 7.9205
5.700000 66.232 6.6254
5.800000 66.549 5.3488
5.900000 66.859 4.0915
6.000000 67.160 2.8529
6.080000 67.396 1.8757
6.150000 67.599 1.0306
6.220000 67.799 0.1951
6.300000 68.024 -0.7475
6.400000 68.299 -1.9076
6.500000 68.568 -3.0495
6.600000 68.831 -4.1755
6.700000 69.089 -5.2853
6.800000 69.341 -6.3784
6.900000 69.588 -7.4554
7.000000 69.830 -8.5166
7.100000 70.067 -9.5617
7.200000 70.299 -10.5909
7.300000 70.527 -11.6049
7.400000 70.750 -12.6043
7.500000 70.969 -13.5887
7.620000 71.226 -14.7494
7.750000 71.499 -15.9799
7.880000 71.765 -17.1823
8.000000 72.006 -18.2690
8.120000 72.243 -19.3340
8.250000 72.495 -20.4616
8.380000 72.743 -21.5678
8.500000 72.969 -22.5733
8.620000 73.193 -23.5606
8.750000 73.432 -24.6188
8.850000 73.614 -25.4293
9.000000 73.885 -26.6336
9.120000 74.098 -27.5945
9.250000 74.325 -28.6388
9.380000 74.549 -29.6834
9.500000 74.751 -30.6489
9.620000 74.949 -31.6174
9.750000 75.159 -32.6691
9.880000 75.363 -33.7168
10.000000 75.546 -34.6800
10.150000 75.767 -35.8780
10.300000 75.981 -37.0550
10.440000 76.173 -38.1358
10.600000 76.386 -39.3441
10.750000 76.580 -40.4435
10.900000 76.768 -41.5138
11.060000 76.965 -42.6245
11.200000 77.134 -43.5681
11.380000 77.348 -44.7578
11.500000 77.489 -45.5366
11.720000 77.744 -46.9465
11.800000 77.836 -47.4582
12.060000 78.127 -49.1136
12.200000 78.279 -50.0071
12.410000 78.500 -51.3459
12.500000 78.591 -51.9155
12.650000 78.738 -52.8628
12.800000 78.879 -53.7960
13.150000 79.189 -55.8937
13.200000 79.231 -56.1815
13.400000 79.396 -57.3004
13.600000 79.558 -58.3711
13.800000 79.717 -59.3911
14.000000 79.877 -60.3814
14.300000 80.118 -61.8271
14.500000 80.280 -62.7906
14.750000 80.481 -64.0134
15.000000 80.678 -65.2645
15.250000 80.868 -66.5439
15.500000 81.049 -67.8353
15.750000 81.220 -69.1277
16.000000 81.383 -70.4035
16.250000 81.538 -71.6564
16.500000 81.688 -72.8859
16.750000 81.834 -74.0949
17.000000 81.977 -75.2903
17.250000 82.114 -76.4730
17.500000 82.248 -77.6438
17.750000 82.376 -78.7954
18.000000 82.500 -79.9234
18.250000 82.621 -81.0229
18.500000 82.740 -82.0942
18.750000 82.858 -83.1428
19.000000 82.975 -84.1741
19.250000 83.091 -85.1976
19.500000 83.204 -86.2138
19.750000 83.315 -87.2226
20.000000 83.420 -88.2164
20.299999 83.542 -89.3777
20.600000 83.659 -90.4970
20.900000 83.774 -91.5730
21.200001 83.888 -92.6151
21.400000 83.963 -93.2999
21.799999 84.110 -94.6553
22.000000 84.181 -95.3271
22.400000 84.314 -96.6488
22.700001 84.407 -97.6050
23.000000 84.497 -98.5206
23.299999 84.585 -99.4014
23.600000 84.673 -100.2627
24.000000 84.791 -101.4095
24.299999 84.876 -102.2830
24.700001 84.981 -103.4600
25.000000 85.053 -104.3339
25.400000 85.143 -105.4646
25.799999 85.232 -106.5576
26.200001 85.323 -107.6507
26.500000 85.392 -108.5000
26.900000 85.478 -109.6891
27.200001 85.534 -110.6104
27.600000 85.592 -111.8319
28.000000 85.635 -112.9777
28.500000 85.683 -114.2429
29.000000 85.745 -115.3659
29.500000 85.826 -116.4755
30.000000 85.913 -117.6759
30.400000 85.973 -118.6883
30.700001 86.009 -119.4387
31.100000 86.049 -120.3691
31.500000 86.088 -121.1947
32.000000 86.151 -122.1284
32.500000 86.232 -123.0866
33.000000 86.316 -124.1702
33.500000 86.381 -125.3414
34.000000 86.423 -126.4728
34.500000 86.455 -127.4796
35.000000 86.492 -128.3875
35.500000 86.538 -129.2812
36.000000 86.583 -130.2066
36.500000 86.622 -131.1413
37.000000 86.653 -132.0352
37.500000 86.683 -132.8654
38.200001 86.731 -133.9498
38.700001 86.773 -134.7148
39.500000 86.841 -136.0082
40.000000 86.875 -136.8559
40.599998 86.900 -137.8426
41.200001 86.919 -138.7299
41.799999 86.942 -139.5510
42.500000 86.976 -140.5374
43.099998 86.997 -141.4153
43.700001 87.011 -142.2525
44.400002 87.030 -143.1682
45.000000 87.052 -143.9635
45.500000 87.068 -144.6466
46.200001 87.084 -145.5793
46.799999 87.097 -146.3164
47.500000 87.119 -147.1208
48.200001 87.152 -147.9327
48.700001 87.177 -148.5606
49.400002 87.200 -149.5102
50.000000 87.200 -150.3048
50.799999 87.183 -151.2008
51.500000 87.174 -151.8620
52.200001 87.172 -152.4908
53.000000 87.177 -153.1976
53.799999 87.190 -153.9667
54.500000 87.194 -154.7259
55.200001 87.182 -155.4493
56.000000 87.170 -156.1396
57.000000 87.180 -157.0238
58.000000 87.173 -158.0244
59.000000 87.146 -158.8415
60.000000 87.142 -159.5097
60.799999 87.154 -160.1519
61.500000 87.153 -160.8123
62.200001 87.134 -161.4514
63.000000 87.105 -162.0374
64.000000 87.094 -162.6487
65.000000 87.104 -163.3964
66.000000 87.096 -164.2672
67.000000 87.064 -165.0273
68.000000 87.038 -165.6252
69.000000 87.026 -166.2060
70.000000 87.015 -166.8386
71.000000 86.996 -167.4913
72.000000 86.971 -168.1251
73.000000 86.945 -168.7301
74.000000 86.919 -169.3069
75.000000 86.897 -169.8615
76.199997 86.875 -170.5299
77.500000 86.848 -171.2520
78.800003 86.815 -171.9431
80.000000 86.785 -172.5421
81.199997 86.755 -173.1446
82.500000 86.719 -173.7943
83.800003 86.682 -174.4063
85.000000 86.650 -174.9495
86.199997 86.617 -175.4720
87.500000 86.582 -176.0082
88.500000 86.555 -176.4062
90.000000 86.514 -176.9899
91.199997 86.480 -177.4549
92.500000 86.442 -177.9550
93.800003 86.403 -178.4412
95.000000 86.368 -178.8743
96.199997 86.334 -179.2897
97.500000 86.296 -179.7169
98.800003 86.257 179.8763
100.000000 86.222 179.4989
101.500000 86.173 179.0255
103.000000 86.124 178.5764
104.400002 86.079 178.1721
106.000000 86.026 177.7243
107.500000 85.975 177.3049
109.000000 85.921 176.8727
110.599998 85.866 176.3925
112.000000 85.824 175.9640
113.800003 85.781 175.4441
115.000000 85.757 175.1461
117.199997 85.708 174.7281
118.000000 85.685 174.6079
120.599998 85.596 174.1952
122.000000 85.542 173.9150
124.099998 85.470 173.4412
125.000000 85.444 173.2386
126.500000 85.402 172.9366
128.000000 85.362 172.6855
131.500000 85.257 172.1799
132.000000 85.242 172.1048
134.000000 85.179 171.7885
136.000000 85.119 171.4733
138.000000 85.061 171.1843
140.000000 85.003 170.9292
143.000000 84.913 170.5715
145.000000 84.851 170.3077
147.500000 84.770 169.9199
150.000000 84.686 169.5961
152.500000 84.625 169.4565
155.000000 84.571 169.3041
157.500000 84.503 169.1318
160.000000 84.431 168.9382
162.500000 84.364 168.7414
165.000000 84.299 168.5669
167.500000 84.232 168.4083
170.000000 84.164 168.2682
172.500000 84.098 168.1509
175.000000 84.033 168.0417
177.500000 83.968 167.9370
180.000000 83.905 167.8372
182.500000 83.843 167.7473
185.000000 83.780 167.6737
187.500000 83.718 167.6155
190.000000 83.659 167.5640
192.500000 83.601 167.5197
195.000000 83.542 167.4924
197.500000 83.482 167.4731
200.000000 83.424 167.4409
203.000000 83.355 167.4157
206.000000 83.287 167.4151
209.000000 83.219 167.4258
212.000000 83.154 167.4431
214.000000 83.111 167.4600
218.000000 83.026 167.5178
220.000000 82.985 167.5555
224.000000 82.903 167.6398
227.000000 82.844 167.7057
230.000000 82.786 167.7809
233.000000 82.728 167.8704
236.000000 82.672 167.9656
240.000000 82.601 168.1084
243.000000 82.549 168.2148
247.000000 82.485 168.3213
250.000000 82.438 168.4107
254.000000 82.370 168.6151
258.000000 82.305 168.8235
262.000000 82.246 169.0114
265.000000 82.205 169.1565
269.000000 82.153 169.3475
272.000000 82.115 169.4790
276.000000 82.061 169.6274
280.000000 82.006 169.7720
285.000000 81.939 169.9664
290.000000 81.875 170.1585
295.000000 81.813 170.3580
300.000000 81.750 170.5698
304.000000 81.697 170.7468
307.000000 81.657 170.8837
311.000000 81.604 171.0687
315.000000 81.553 171.2614
320.000000 81.489 171.5075
325.000000 81.426 171.7599
330.000000 81.364 172.0305
335.000000 81.303 172.3108
340.000000 81.244 172.6017
345.000000 81.188 172.8864
350.000000 81.134 173.1759
355.000000 81.077 173.5148
360.000000 81.021 173.8553
365.000000 80.968 174.1842
370.000000 80.918 174.5213
375.000000 80.871 174.8625
382.000000 80.807 175.3334
387.000000 80.762 175.6777
395.000000 80.690 176.2499
400.000000 80.646 176.6168
406.000000 80.597 177.0458
412.000000 80.549 177.4785
418.000000 80.500 177.9190
425.000000 80.442 178.4276
431.000000 80.398 178.8842
437.000000 80.361 179.3747
444.000000 80.319 179.9691
450.000000 80.283 -179.5283
455.000000 80.249 -179.1519
462.000000 80.205 -178.6265
468.000000 80.172 -178.1404
475.000000 80.134 -177.5558
482.000000 80.100 -176.9776
487.000000 80.079 -176.5672
494.000000 80.054 -175.9899
500.000000 80.036 -175.4982
508.000000 80.013 -174.8524
515.000000 79.989 -174.2877
522.000000 79.969 -173.7197
530.000000 79.951 -173.0944
538.000000 79.933 -172.4913
545.000000 79.916 -171.9700
552.000000 79.902 -171.4409
560.000000 79.891 -170.8360
570.000000 79.877 -170.1041
580.000000 79.862 -169.3805
590.000000 79.846 -168.6557
600.000000 79.831 -167.9405
608.000000 79.819 -167.3588
615.000000 79.811 -166.8457
622.000000 79.803 -166.3348
630.000000 79.795 -165.7531
640.000000 79.785 -165.0071
650.000000 79.775 -164.2376
660.000000 79.770 -163.5101
670.000000 79.768 -162.7695
680.000000 79.765 -162.0040
690.000000 79.765 -161.2304
700.000000 79.768 -160.4617
710.000000 79.773 -159.6915
720.000000 79.780 -158.9200
730.000000 79.789 -158.1501
740.000000 79.801 -157.3884
750.000000 79.816 -156.6203
762.000000 79.841 -155.6636
775.000000 79.872 -154.6296
788.000000 79.906 -153.6131
800.000000 79.943 -152.6810
812.000000 79.983 -151.7516
825.000000 80.033 -150.7642
838.000000 80.088 -149.7913
850.000000 80.143 -148.9049
862.000000 80.203 -148.0153
875.000000 80.273 -147.0679
885.000000 80.330 -146.3609
900.000000 80.421 -145.3290
912.000000 80.499 -144.5291
925.000000 80.589 -143.7014
938.000000 80.685 -142.9420
950.000000 80.776 -142.3253
962.000000 80.860 -141.7912
975.000000 80.924 -141.2176
988.000000 80.978 -140.4360
1000.000000 81.055 -139.6046
1015.000000 81.183 -138.6951
1030.000000 81.316 -137.9585
1044.000000 81.436 -137.3551
1060.000000 81.571 -136.7124
1075.000000 81.696 -136.1780
1090.000000 81.815 -135.7391
1106.000000 81.925 -135.3237
1120.000000 82.012 -134.8946
1138.000000 82.133 -134.2852
1150.000000 82.218 -133.9060
1172.000000 82.373 -133.2832
1180.000000 82.428 -133.0751
1206.000000 82.601 -132.4441
1220.000000 82.691 -132.1266
1241.000000 82.821 -131.6614
1250.000000 82.876 -131.4665
1265.000000 82.966 -131.1524
1280.000000 83.055 -130.8443
1315.000000 83.253 -130.1245
1320.000000 83.281 -130.0239
1340.000000 83.392 -129.6268
1360.000000 83.499 -129.2318
1380.000000 83.607 -128.8300
1400.000000 83.715 -128.4312
1430.000000 83.873 -127.8345
1450.000000 83.978 -127.4387
1475.000000 84.108 -126.9362
1500.000000 84.239 -126.4354
1525.000000 84.369 -125.9365
1550.000000 84.500 -125.4365
1575.000000 84.633 -124.9422
1600.000000 84.768 -124.4420
1625.000000 84.906 -123.9374
1650.000000 85.046 -123.4347
1675.000000 85.188 -122.9279
1700.000000 85.336 -122.4126
1725.000000 85.489 -121.8909
1750.000000 85.650 -121.3623
1775.000000 85.821 -120.8314
1800.000000 86.007 -120.3216
1825.000000 86.210 -119.8651
1850.000000 86.429 -119.5099
1875.000000 86.661 -119.3021
1900.000000 86.896 -119.2776
1925.000000 87.125 -119.4469
1950.000000 87.338 -119.7712
1975.000000 87.532 -120.1925
2000.000000 87.705 -120.6652
2030.000000 87.891 -121.2309
2060.000000 88.063 -121.7721
2090.000000 88.224 -122.2908
2120.000000 88.380 -122.7973
2140.000000 88.481 -123.1367
2180.000000 88.680 -123.8297
2200.000000 88.777 -124.1907
2240.000000 88.966 -124.9561
2270.000000 89.102 -125.5727
2300.000000 89.232 -126.2253
2330.000000 89.356 -126.9102
2360.000000 89.473 -127.6256
2400.000000 89.618 -128.6265
2430.000000 89.718 -129.4138
2470.000000 89.838 -130.5132
2500.000000 89.916 -131.3697
2540.000000 90.005 -132.5381
2580.000000 90.075 -133.7214
2620.000000 90.126 -134.9013
2650.000000 90.152 -135.7763
2690.000000 90.170 -136.9201
2720.000000 90.173 -137.7524
2760.000000 90.163 -138.8199
2800.000000 90.137 -139.8296
2850.000000 90.087 -140.9962
2900.000000 90.019 -142.0462
2950.000000 89.937 -142.9703
3000.000000 89.843 -143.7678
3040.000000 89.761 -144.3155
3070.000000 89.697 -144.6726
3110.000000 89.608 -145.0784
3150.000000 89.518 -145.4075
3200.000000 89.404 -145.7138
3250.000000 89.290 -145.9097
3300.000000 89.178 -146.0049
3350.000000 89.070 -146.0088
3400.000000 88.966 -145.9313
3450.000000 88.867 -145.7764
3500.000000 88.775 -145.5506
3550.000000 88.689 -145.2649
3600.000000 88.610 -144.9277
3650.000000 88.540 -144.5392
3700.000000 88.477 -144.1059
3750.000000 88.423 -143.6403
3820.000000 88.362 -142.9451
3870.000000 88.328 -142.4247
3950.000000 88.293 -141.5759
4000.000000 88.283 -141.0475
4060.000000 88.281 -140.4203
4120.000000 88.291 -139.8064
4180.000000 88.312 -139.2211
4250.000000 88.352 -138.5909
4310.000000 88.397 -138.1040
4370.000000 88.452 -137.6717
4440.000000 88.527 -137.2481
4500.000000 88.600 -136.9662
4550.000000 88.665 -136.7944
4620.000000 88.761 -136.6599
4680.000000 88.847 -136.6524
4750.000000 88.948 -136.7795
4820.000000 89.046 -137.0555
4870.000000 89.112 -137.3465
4940.000000 89.196 -137.8840
5000.000000 89.256 -138.4603
5080.000000 89.317 -139.3802
5150.000000 89.348 -140.3117
5220.000000 89.353 -141.3366
5300.000000 89.324 -142.5807
5380.000000 89.256 -143.8533
5450.000000 89.165 -144.9512
5520.000000 89.046 -146.0013
5600.000000 88.876 -147.1041
5700.000000 88.621 -148.2795
5800.000000 88.328 -149.1750
5900.000000 88.010 -149.7513
6000.000000 87.678 -149.9983
6080.000000 87.410 -149.9646
6150.000000 87.178 -149.7806
6220.000000 86.953 -149.4681
6300.000000 86.705 -148.9803
6400.000000 86.404 -148.2099
6500.000000 86.108 -147.1704
6600.000000 85.846 -145.8230
6700.000000 85.630 -144.3420
6800.000000 85.451 -142.8065
6900.000000 85.305 -141.2218
7000.000000 85.195 -139.6011
7100.000000 85.125 -137.9915
7200.000000 85.095 -136.4510
7300.000000 85.101 -135.0229
7400.000000 85.143 -133.7330
7500.000000 85.219 -132.6171
7620.000000 85.356 -131.5740
7750.000000 85.551 -130.9215
7880.000000 85.785 -130.9041
8000.000000 86.013 -131.5699
8120.000000 86.224 -132.9778
8250.000000 86.394 -135.3484
8380.000000 86.458 -138.5085
8500.000000 86.388 -141.9594
8620.000000 86.168 -145.6358
8750.000000 85.755 -149.4650
8850.000000 85.325 -152.0555
9000.000000 84.540 -155.0650
9120.000000 83.832 -156.5990
9250.000000 83.030 -157.3881
9380.000000 82.226 -157.3528
9500.000000 81.504 -156.6840
9620.000000 80.814 -155.5054
9750.000000 80.111 -153.7568
9880.000000 79.458 -151.6037
10000.000000 78.903 -149.3241
10150.000000 78.277 -146.1532
10300.000000 77.724 -142.7108
10440.000000 77.273 -139.3153
10600.000000 76.834 -135.2847
10750.000000 76.497 -131.4122
10900.000000 76.231 -127.4915
11060.000000 76.028 -123.2944
11200.000000 75.923 -119.6622
11380.000000 75.889 -115.0873
11500.000000 75.929 -112.1240
11720.000000 76.140 -106.9685
11800.000000 76.262 -105.2103
12060.000000 76.841 -100.0885
12200.000000 77.274 -97.8266
12410.000000 78.101 -95.3638
12500.000000 78.524 -94.7577
12650.000000 79.321 -94.5428
12800.000000 80.221 -95.6161
13150.000000 82.412 -105.6814
13200.000000 82.675 -108.2138
13400.000000 83.368 -120.9747
13600.000000 83.285 -135.8598
13800.000000 82.421 -149.0203
14000.000000 81.086 -158.1877
14300.000000 78.990 -165.5810
14500.000000 77.792 -168.2117
14750.000000 76.547 -170.4604
15000.000000 75.521 -172.0943
15250.000000 74.707 -173.3924
15500.000000 74.131 -174.8412
15750.000000 73.785 -177.0131
16000.000000 73.648 179.6068
16250.000000 73.681 174.5006
16500.000000 73.811 167.0109
16750.000000 73.885 156.6003
17000.000000 73.677 143.6293
17250.000000 73.094 129.7983
17500.000000 72.257 116.0899
17750.000000 71.262 102.6090
18000.000000 70.193 89.3480
18250.000000 69.141 75.9550
18500.000000 68.174 61.6899
18750.000000 67.295 45.5738
19000.000000 66.436 26.6167
19250.000000 65.450 4.1491
19500.000000 64.143 -21.4962
19750.000000 62.453 -46.8203
