* Measurement data measured by REW V5.20.9
* Source: Headset (USB-C to 3.5mm Headphone Jack Adapter), MICROPHONE (Master Volume), R, volume: 0.800. Timing signal peak level -26.6 dBFS, measurement signal peak level -20.0 dBFS
* Format: 256k Log Swept Sine, 1 sweep at -12.0 dBFS using an acoustic timing reference
* Dated: 13/07/2022 9:08:46 PM
* REW Settings:
*  C-weighting compensation: Off
*  Target level: 75.0 dB
* Note: ; Delay -0.0506 ms (-17 mm, -0.68 in) using estimated IR delay relative to Acoustic reference on  L with no timing offset
* Measurement: Earphones with Mic L
* Smoothing: 1/24 octave
* Frequency Step: 1/48 octave
* Start Frequency: 1.000 Hz
*
* Freq(Hz) SPL(dB) Phase(degrees)
1.000000 66.089 -145.9630
1.015000 66.293 -147.9310
1.030000 66.494 -149.8284
1.044000 66.680 -151.5289
1.060000 66.889 -153.3808
1.075000 67.080 -155.0205
1.090000 67.267 -156.5587
1.106000 67.462 -158.0802
1.120000 67.630 -159.3136
1.138000 67.846 -160.7751
1.150000 67.988 -161.6773
1.172000 68.248 -163.1946
1.180000 68.341 -163.7060
1.206000 68.643 -165.2363
1.220000 68.804 -165.9862
1.241000 69.043 -167.0291
1.250000 69.144 -167.4500
1.265000 69.313 -168.1225
1.280000 69.480 -168.7647
1.315000 69.864 -170.1843
1.320000 69.918 -170.3819
1.340000 70.133 -171.1694
1.360000 70.346 -171.9650
1.380000 70.556 -172.7850
1.400000 70.764 -173.6461
1.430000 71.070 -175.0508
1.450000 71.271 -176.0868
1.475000 71.517 -177.5135
1.500000 71.760 -179.0224
1.525000 71.997 179.4144
1.550000 72.231 177.8080
1.575000 72.460 176.1692
1.600000 72.685 174.5091
1.625000 72.906 172.8387
1.650000 73.123 171.1689
1.675000 73.337 169.5108
1.700000 73.547 167.8753
1.725000 73.753 166.2735
1.750000 73.956 164.7163
1.775000 74.155 163.2147
1.800000 74.351 161.7797
1.825000 74.544 160.4224
1.850000 74.734 159.1462
1.875000 74.920 157.9354
1.900000 75.102 156.7828
1.925000 75.279 155.6819
1.950000 75.453 154.6259
1.975000 75.624 153.6084
2.000000 75.791 152.6227
2.030000 75.988 151.4725
2.060000 76.180 150.3473
2.090000 76.368 149.2355
2.120000 76.552 148.1259
2.140000 76.673 147.3816
2.180000 76.910 145.8672
2.200000 77.027 145.0905
2.240000 77.255 143.5261
2.270000 77.420 142.3561
2.300000 77.582 141.1909
2.330000 77.739 140.0322
2.360000 77.892 138.8818
2.400000 78.091 137.3642
2.430000 78.236 136.2404
2.470000 78.425 134.7646
2.500000 78.564 133.6771
2.540000 78.746 132.2562
2.580000 78.923 130.8711
2.620000 79.095 129.5116
2.650000 79.220 128.5079
2.690000 79.382 127.1919
2.720000 79.500 126.2224
2.760000 79.653 124.9545
2.800000 79.802 123.7162
2.850000 79.984 122.2120
2.900000 80.162 120.7594
2.950000 80.337 119.3635
3.000000 80.505 118.0420
3.040000 80.635 117.0324
3.070000 80.731 116.2977
3.110000 80.855 115.3419
3.150000 80.977 114.4058
3.200000 81.127 113.2515
3.250000 81.274 112.1002
3.300000 81.420 110.9366
3.350000 81.563 109.7626
3.400000 81.703 108.5909
3.450000 81.840 107.4281
3.500000 81.974 106.2806
3.550000 82.106 105.1549
3.600000 82.236 104.0574
3.650000 82.364 102.9946
3.700000 82.492 101.9765
3.750000 82.618 101.0076
3.820000 82.791 99.7090
3.870000 82.912 98.8042
3.950000 83.102 97.3585
4.000000 83.217 96.4348
4.060000 83.353 95.2882
4.120000 83.486 94.1157
4.180000 83.616 92.9294
4.250000 83.763 91.5406
4.310000 83.885 90.3571
4.370000 84.001 89.1899
4.440000 84.129 87.8570
4.500000 84.235 86.7309
4.550000 84.319 85.8011
4.620000 84.431 84.5095
4.680000 84.521 83.4081
4.750000 84.618 82.1260
4.820000 84.705 80.8368
4.870000 84.763 79.9094
4.940000 84.836 78.6148
5.000000 84.892 77.5204
5.080000 84.957 76.1025
5.150000 85.006 74.9165
5.220000 85.045 73.7631
5.300000 85.079 72.4846
5.380000 85.104 71.2617
5.450000 85.119 70.2481
5.520000 85.130 69.2952
5.600000 85.133 68.2683
5.700000 85.126 67.0793
5.800000 85.113 66.0056
5.900000 85.101 65.0593
6.000000 85.084 64.2479
6.080000 85.069 63.6828
6.150000 85.058 63.2393
6.220000 85.052 62.8349
6.300000 85.051 62.4348
6.400000 85.055 62.0364
6.500000 85.067 61.7000
6.600000 85.090 61.3705
6.700000 85.126 61.0630
6.800000 85.173 60.7845
6.900000 85.227 60.4945
7.000000 85.285 60.1586
7.100000 85.352 59.7963
7.200000 85.424 59.4056
7.300000 85.494 58.9748
7.400000 85.562 58.4920
7.500000 85.630 57.9602
7.620000 85.707 57.2843
7.750000 85.779 56.5329
7.880000 85.842 55.7420
8.000000 85.891 55.0086
8.120000 85.932 54.3036
8.250000 85.967 53.5542
8.380000 85.995 52.8375
8.500000 86.018 52.2234
8.620000 86.037 51.6492
8.750000 86.056 51.0629
8.850000 86.073 50.6349
9.000000 86.098 50.0382
9.120000 86.119 49.5779
9.250000 86.146 49.0815
9.380000 86.174 48.5962
9.500000 86.201 48.1447
9.620000 86.229 47.6814
9.750000 86.259 47.1724
9.880000 86.287 46.6581
10.000000 86.311 46.1762
10.150000 86.339 45.5679
10.300000 86.362 44.9718
10.440000 86.381 44.4243
10.600000 86.399 43.8180
10.750000 86.415 43.2776
10.900000 86.428 42.7606
11.060000 86.443 42.2359
11.200000 86.456 41.8006
11.380000 86.474 41.2636
11.500000 86.487 40.9185
11.720000 86.513 40.3103
11.800000 86.523 40.0952
12.060000 86.556 39.4205
12.200000 86.576 39.0731
12.410000 86.607 38.5712
12.500000 86.622 38.3619
12.650000 86.648 38.0235
12.800000 86.677 37.6874
13.150000 86.753 36.8909
13.200000 86.764 36.7707
13.400000 86.812 36.2724
13.600000 86.858 35.7387
13.800000 86.900 35.1617
14.000000 86.933 34.5668
14.300000 86.964 33.6664
14.500000 86.970 33.1078
14.750000 86.966 32.5094
15.000000 86.955 32.0449
15.250000 86.949 31.7307
15.500000 86.956 31.5155
15.750000 86.981 31.3563
16.000000 87.025 31.1698
16.250000 87.081 30.8922
16.500000 87.141 30.5038
16.750000 87.193 29.9933
17.000000 87.229 29.4180
17.250000 87.246 28.8244
17.500000 87.245 28.2740
17.750000 87.232 27.8268
18.000000 87.216 27.4886
18.250000 87.204 27.2646
18.500000 87.205 27.1038
18.750000 87.219 26.9597
19.000000 87.247 26.7891
19.250000 87.280 26.5443
19.500000 87.313 26.2292
19.750000 87.341 25.8489
20.000000 87.358 25.4440
20.299999 87.365 24.9813
20.600000 87.362 24.5900
20.900000 87.358 24.2947
21.200001 87.360 24.0806
21.400000 87.368 23.9540
21.799999 87.398 23.6809
22.000000 87.417 23.5107
22.400000 87.450 23.0865
22.700001 87.465 22.7288
23.000000 87.467 22.3934
23.299999 87.462 22.1274
23.600000 87.457 21.9460
24.000000 87.463 21.8071
24.299999 87.482 21.7122
24.700001 87.524 21.4928
25.000000 87.556 21.2142
25.400000 87.581 20.7107
25.799999 87.576 20.1796
26.200001 87.545 19.7776
26.500000 87.518 19.6107
26.900000 87.496 19.5389
27.200001 87.496 19.5222
27.600000 87.517 19.4346
28.000000 87.545 19.2018
28.500000 87.561 18.7701
29.000000 87.550 18.3890
29.500000 87.534 18.1919
30.000000 87.538 18.1255
30.400000 87.560 18.0582
30.700001 87.584 17.9553
31.100000 87.614 17.7337
31.500000 87.634 17.4478
32.000000 87.636 17.1074
32.500000 87.621 16.9211
33.000000 87.612 16.9412
33.500000 87.633 17.0649
34.000000 87.684 17.0930
34.500000 87.740 16.8985
35.000000 87.773 16.5264
35.500000 87.773 16.1384
36.000000 87.752 15.8591
36.500000 87.729 15.6945
37.000000 87.712 15.5748
37.500000 87.700 15.4459
38.200001 87.689 15.2269
38.700001 87.686 15.0282
39.500000 87.676 14.6165
40.000000 87.662 14.3979
40.599998 87.655 14.3038
41.200001 87.694 14.2883
41.799999 87.771 14.0564
42.500000 87.838 13.4200
43.099998 87.836 12.9321
43.700001 87.808 12.8389
44.400002 87.806 13.1720
45.000000 87.846 13.5233
45.500000 87.891 13.6817
46.200001 87.933 13.6788
46.799999 87.937 13.5914
47.500000 87.924 13.3538
48.200001 87.860 12.7356
48.700001 87.742 12.2767
49.400002 87.519 12.4110
50.000000 87.440 13.2531
50.799999 87.602 13.6025
51.500000 87.753 12.2855
52.200001 87.759 10.6842
53.000000 87.735 9.7421
53.799999 87.792 9.2133
54.500000 87.844 8.8588
55.200001 87.882 8.9600
56.000000 87.957 9.6161
57.000000 88.100 10.5668
58.000000 88.210 11.1409
59.000000 88.198 11.2528
60.000000 88.011 11.6071
60.799999 87.865 12.7333
61.500000 87.881 13.7637
62.200001 87.999 13.9572
63.000000 88.125 13.1298
64.000000 88.206 11.2056
65.000000 88.088 9.1168
66.000000 87.854 9.0493
67.000000 87.894 10.1788
68.000000 88.034 10.1210
69.000000 88.045 9.8331
70.000000 88.029 9.8842
71.000000 88.013 9.9138
72.000000 87.996 9.9100
73.000000 87.992 9.8364
74.000000 88.000 9.6987
75.000000 88.013 9.5143
76.199997 88.023 9.3580
77.500000 88.033 9.3405
78.800003 88.047 9.4077
80.000000 88.065 9.4034
81.199997 88.077 9.3226
82.500000 88.093 9.2024
83.800003 88.105 9.0662
85.000000 88.117 9.0311
86.199997 88.131 9.0090
87.500000 88.134 9.0087
88.500000 88.135 9.0222
90.000000 88.138 8.9829
91.199997 88.140 8.8596
92.500000 88.139 8.7156
93.800003 88.144 8.6141
95.000000 88.156 8.5738
96.199997 88.176 8.5641
97.500000 88.201 8.5297
98.800003 88.217 8.4573
100.000000 88.217 8.3989
101.500000 88.213 8.4369
103.000000 88.225 8.4897
104.400002 88.240 8.4633
106.000000 88.251 8.3958
107.500000 88.257 8.3476
109.000000 88.266 8.3357
110.599998 88.286 8.3083
112.000000 88.300 8.2526
113.800003 88.310 8.2576
115.000000 88.319 8.2935
117.199997 88.335 8.2930
118.000000 88.340 8.2490
120.599998 88.350 8.0681
122.000000 88.359 8.0053
124.099998 88.373 8.0606
125.000000 88.381 8.1268
126.500000 88.394 8.2255
128.000000 88.408 8.2569
131.500000 88.447 7.9617
132.000000 88.452 7.9271
134.000000 88.476 7.9034
136.000000 88.499 7.9598
138.000000 88.511 8.0192
140.000000 88.525 8.0348
143.000000 88.557 8.0131
145.000000 88.566 8.0137
147.500000 88.555 7.9579
150.000000 88.542 7.9589
152.500000 88.609 8.0184
155.000000 88.685 7.9822
157.500000 88.724 8.0311
160.000000 88.741 8.0402
162.500000 88.762 7.9870
165.000000 88.795 7.9504
167.500000 88.829 7.9672
170.000000 88.857 8.0014
172.500000 88.883 8.0240
175.000000 88.912 8.0195
177.500000 88.943 7.9854
180.000000 88.973 7.9512
182.500000 89.003 7.9440
185.000000 89.038 7.9474
187.500000 89.073 7.9362
190.000000 89.109 7.8944
192.500000 89.145 7.8458
195.000000 89.186 7.8485
197.500000 89.225 7.8842
200.000000 89.255 7.9258
203.000000 89.288 7.9392
206.000000 89.324 7.9177
209.000000 89.367 7.9113
212.000000 89.416 7.8818
214.000000 89.450 7.8710
218.000000 89.513 7.8896
220.000000 89.539 7.8889
224.000000 89.592 7.8318
227.000000 89.641 7.7811
230.000000 89.693 7.7385
233.000000 89.740 7.6753
236.000000 89.785 7.6118
240.000000 89.847 7.5553
243.000000 89.897 7.5493
247.000000 89.978 7.5931
250.000000 90.035 7.6176
254.000000 90.085 7.5761
258.000000 90.132 7.5341
262.000000 90.184 7.5896
265.000000 90.227 7.6902
269.000000 90.300 7.8947
272.000000 90.365 8.1405
276.000000 90.473 8.5410
280.000000 90.622 8.9001
285.000000 90.855 9.0764
290.000000 91.098 8.7593
295.000000 91.303 8.0762
300.000000 91.463 7.3435
304.000000 91.576 6.8105
307.000000 91.656 6.4429
311.000000 91.761 5.9862
315.000000 91.864 5.5534
320.000000 91.989 5.0253
325.000000 92.123 4.5096
330.000000 92.267 4.0341
335.000000 92.409 3.5481
340.000000 92.548 3.0532
345.000000 92.697 2.5460
350.000000 92.852 1.9692
355.000000 93.013 1.3237
360.000000 93.177 0.6508
365.000000 93.346 -0.0636
370.000000 93.517 -0.8473
375.000000 93.693 -1.6747
382.000000 93.946 -2.9099
387.000000 94.128 -3.8730
395.000000 94.422 -5.5283
400.000000 94.609 -6.6732
406.000000 94.832 -8.1763
412.000000 95.057 -9.8014
418.000000 95.280 -11.5381
425.000000 95.529 -13.7429
431.000000 95.740 -15.7962
437.000000 95.950 -17.9919
444.000000 96.180 -20.7675
450.000000 96.356 -23.3147
455.000000 96.485 -25.5765
462.000000 96.640 -28.9191
468.000000 96.749 -31.9157
475.000000 96.840 -35.5532
482.000000 96.890 -39.3239
487.000000 96.897 -42.0717
494.000000 96.861 -45.9551
500.000000 96.790 -49.2983
508.000000 96.638 -53.7109
515.000000 96.456 -57.4639
522.000000 96.235 -61.0883
530.000000 95.935 -65.0093
538.000000 95.592 -68.6601
545.000000 95.263 -71.6238
552.000000 94.911 -74.3884
560.000000 94.487 -77.2804
570.000000 93.938 -80.4767
580.000000 93.378 -83.2767
590.000000 92.812 -85.7115
600.000000 92.247 -87.7856
608.000000 91.799 -89.2133
615.000000 91.414 -90.3215
622.000000 91.035 -91.3110
630.000000 90.607 -92.3040
640.000000 90.081 -93.3464
650.000000 89.564 -94.2247
660.000000 89.066 -94.9677
670.000000 88.585 -95.5508
680.000000 88.112 -96.0068
690.000000 87.647 -96.3523
700.000000 87.192 -96.5901
710.000000 86.749 -96.7396
720.000000 86.315 -96.7987
730.000000 85.887 -96.7498
740.000000 85.461 -96.6198
750.000000 85.034 -96.4354
762.000000 84.511 -96.1403
775.000000 83.926 -95.5897
788.000000 83.315 -94.6654
800.000000 82.705 -93.2130
812.000000 82.067 -90.5855
825.000000 81.493 -85.6180
838.000000 81.429 -79.1766
850.000000 81.959 -75.0536
862.000000 82.575 -74.8932
875.000000 82.869 -77.5370
885.000000 82.829 -79.7432
900.000000 82.544 -82.0435
912.000000 82.251 -83.0619
925.000000 81.927 -83.6069
938.000000 81.613 -83.7876
950.000000 81.336 -83.7849
962.000000 81.067 -83.6737
975.000000 80.792 -83.4686
988.000000 80.530 -83.2013
1000.000000 80.298 -82.9191
1015.000000 80.019 -82.5370
1030.000000 79.749 -82.1339
1044.000000 79.498 -81.7625
1060.000000 79.224 -81.3329
1075.000000 78.974 -80.9276
1090.000000 78.723 -80.5450
1106.000000 78.457 -80.1321
1120.000000 78.228 -79.7230
1138.000000 77.935 -79.2042
1150.000000 77.737 -78.8740
1172.000000 77.365 -78.2505
1180.000000 77.233 -78.0046
1206.000000 76.802 -77.2007
1220.000000 76.565 -76.7676
1241.000000 76.215 -76.0751
1250.000000 76.065 -75.7517
1265.000000 75.812 -75.1602
1280.000000 75.558 -74.5263
1315.000000 74.956 -72.9799
1320.000000 74.871 -72.7427
1340.000000 74.532 -71.7498
1360.000000 74.193 -70.7115
1380.000000 73.855 -69.6536
1400.000000 73.509 -68.5310
1430.000000 72.999 -66.7032
1450.000000 72.657 -65.3998
1475.000000 72.224 -63.6018
1500.000000 71.797 -61.6870
1525.000000 71.374 -59.6293
1550.000000 70.955 -57.3889
1575.000000 70.508 -54.9310
1600.000000 70.056 -52.3905
1625.000000 69.625 -49.5452
1650.000000 69.202 -46.2590
1675.000000 68.756 -42.5178
1700.000000 68.352 -38.2446
1725.000000 68.021 -33.5070
1750.000000 67.777 -28.5170
1775.000000 67.619 -23.4766
1800.000000 67.525 -18.3269
1825.000000 67.524 -12.9625
1850.000000 67.623 -7.5473
1875.000000 67.818 -2.3115
1900.000000 68.109 2.7178
1925.000000 68.509 7.4106
1950.000000 69.002 11.6970
1975.000000 69.558 15.4637
2000.000000 70.166 18.5810
2030.000000 70.957 21.4050
2060.000000 71.778 23.1542
2090.000000 72.581 23.7498
2120.000000 73.336 23.2456
2140.000000 73.801 22.4128
2180.000000 74.586 19.8073
2200.000000 74.898 18.0824
2240.000000 75.353 14.0501
2270.000000 75.537 10.7753
2300.000000 75.596 7.5598
2330.000000 75.548 4.6202
2360.000000 75.411 2.0865
2400.000000 75.125 -0.6191
2430.000000 74.853 -2.1581
2470.000000 74.455 -3.5792
2500.000000 74.151 -4.1627
2540.000000 73.749 -4.3923
2580.000000 73.372 -4.1321
2620.000000 73.026 -3.5629
2650.000000 72.787 -3.0105
2690.000000 72.489 -2.1512
2720.000000 72.274 -1.4727
2760.000000 71.991 -0.5939
2800.000000 71.710 0.3719
2850.000000 71.348 1.8680
2900.000000 70.994 3.6154
2950.000000 70.653 5.4845
3000.000000 70.332 7.5286
3040.000000 70.077 9.3512
3070.000000 69.888 10.7949
3110.000000 69.644 12.7416
3150.000000 69.412 14.7393
3200.000000 69.131 17.4639
3250.000000 68.846 20.3674
3300.000000 68.559 23.3080
3350.000000 68.278 26.3870
3400.000000 68.014 29.7260
3450.000000 67.749 33.2940
3500.000000 67.491 37.1703
3550.000000 67.231 41.3644
3600.000000 66.977 45.9219
3650.000000 66.750 50.9844
3700.000000 66.553 56.5463
3750.000000 66.402 62.7693
3820.000000 66.341 72.5645
3870.000000 66.451 80.2781
3950.000000 66.998 93.8154
4000.000000 67.661 102.4775
4060.000000 68.786 112.2319
4120.000000 70.225 120.7115
4180.000000 71.900 127.4562
4250.000000 74.026 132.6594
4310.000000 75.890 134.6852
4370.000000 77.712 134.4476
4440.000000 79.676 131.5140
4500.000000 81.137 126.9950
4550.000000 82.156 122.1604
4620.000000 83.254 114.5685
4680.000000 83.922 108.0968
4750.000000 84.465 101.3328
4820.000000 84.873 95.7507
4870.000000 85.143 92.4414
4940.000000 85.557 88.4728
5000.000000 85.983 85.3840
5080.000000 86.682 81.1455
5150.000000 87.411 76.7411
5220.000000 88.207 71.0421
5300.000000 89.073 62.2119
5380.000000 89.679 50.5876
5450.000000 89.814 38.7297
5520.000000 89.495 26.6826
5600.000000 88.617 14.5845
5700.000000 87.027 3.6855
5800.000000 85.266 -2.6687
5900.000000 83.596 -5.6968
6000.000000 82.120 -6.5480
6080.000000 81.086 -6.1963
6150.000000 80.282 -5.3708
6220.000000 79.567 -4.2025
6300.000000 78.846 -2.5408
6400.000000 78.074 -0.0773
6500.000000 77.435 2.6606
6600.000000 76.917 5.5924
6700.000000 76.523 8.7178
6800.000000 76.277 11.8646
6900.000000 76.153 14.7079
7000.000000 76.112 17.3198
7100.000000 76.171 19.7603
7200.000000 76.352 21.8826
7300.000000 76.660 23.5239
7400.000000 77.091 24.4818
7500.000000 77.650 24.5031
7620.000000 78.473 22.7894
7750.000000 79.463 17.7527
7880.000000 80.312 8.2135
8000.000000 80.619 -4.6564
8120.000000 80.182 -19.3542
8250.000000 78.840 -33.4482
8380.000000 76.876 -42.9688
8500.000000 74.855 -47.6427
8620.000000 72.877 -49.3896
8750.000000 70.911 -49.1131
8850.000000 69.528 -47.9609
9000.000000 67.649 -45.1474
9120.000000 66.304 -42.2424
9250.000000 64.979 -38.7703
9380.000000 63.774 -35.0577
9500.000000 62.748 -31.4030
9620.000000 61.797 -27.5881
9750.000000 60.844 -23.2878
9880.000000 59.958 -18.9463
10000.000000 59.189 -15.0165
10150.000000 58.308 -10.2356
10300.000000 57.496 -5.3818
10440.000000 56.751 -0.6348
10600.000000 55.963 5.0481
10750.000000 55.332 10.0699
10900.000000 54.791 14.8541
11060.000000 54.251 20.1656
11200.000000 53.864 24.9016
11380.000000 53.439 30.9062
11500.000000 53.208 34.8389
11720.000000 52.963 41.7947
11800.000000 52.964 44.1969
12060.000000 53.326 50.4077
12200.000000 53.505 52.5237
12410.000000 53.666 55.3519
12500.000000 53.767 56.6900
12650.000000 53.996 58.8289
12800.000000 54.308 60.9611
13150.000000 55.456 65.2321
13200.000000 55.686 65.5803
13400.000000 56.880 66.2090
13600.000000 58.506 65.4969
13800.000000 60.519 62.4811
14000.000000 62.929 55.0918
14300.000000 65.889 28.0313
14500.000000 66.316 -0.0732
14750.000000 64.778 -32.3784
15000.000000 61.786 -50.9330
15250.000000 58.697 -58.4124
15500.000000 56.263 -59.8901
15750.000000 54.713 -58.0598
16000.000000 54.272 -55.6183
16250.000000 54.792 -56.9509
16500.000000 55.516 -64.8946
16750.000000 55.836 -77.2539
17000.000000 55.749 -90.5291
17250.000000 55.590 -103.2502
17500.000000 55.612 -116.1068
17750.000000 55.865 -130.5115
18000.000000 56.313 -148.6069
18250.000000 56.618 -171.8615
18500.000000 56.489 161.3050
18750.000000 55.952 133.8375
19000.000000 55.419 106.4131
19250.000000 55.284 75.6095
19500.000000 55.386 38.1559
19750.000000 55.214 -1.9562
