* Measurement data measured by REW V5.20.9
* Source: Headset (USB-C to 3.5mm Headphone Jack Adapter), MICROPHONE (Master Volume), R, volume: 0.800. Timing signal peak level -20.1 dBFS, measurement signal peak level -20.1 dBFS
* Format: 256k Log Swept Sine, 1 sweep at -12.0 dBFS using an acoustic timing reference
* Dated: 13/07/2022 8:27:44 PM
* REW Settings:
*  C-weighting compensation: Off
*  Target level: 75.0 dB
* Note: ; Delay -0.0973 ms (-33 mm, -1.31 in) using estimated IR delay relative to Acoustic reference on  L with no timing offset
* Measurement: ER2SE L
* Smoothing: 1/24 octave
* Frequency Step: 1/48 octave
* Start Frequency: 1.000 Hz
*
* Freq(Hz) SPL(dB) Phase(degrees)
1.000000 59.591 -43.6828
1.015000 59.776 -45.2864
1.030000 59.957 -46.8284
1.044000 60.123 -48.2064
1.060000 60.309 -49.7019
1.075000 60.482 -51.0205
1.090000 60.653 -52.2517
1.106000 60.833 -53.4607
1.120000 60.985 -54.4237
1.138000 61.173 -55.5397
1.150000 61.294 -56.2133
1.172000 61.505 -57.3165
1.180000 61.578 -57.6792
1.206000 61.807 -58.7349
1.220000 61.923 -59.2355
1.241000 62.089 -59.9139
1.250000 62.157 -60.1825
1.265000 62.266 -60.6067
1.280000 62.371 -61.0083
1.315000 62.597 -61.8996
1.320000 62.627 -62.0258
1.340000 62.744 -62.5392
1.360000 62.854 -63.0797
1.380000 62.957 -63.6653
1.400000 63.053 -64.3140
1.430000 63.186 -65.4446
1.450000 63.267 -66.3298
1.475000 63.362 -67.6109
1.500000 63.447 -69.0586
1.525000 63.524 -70.6410
1.550000 63.591 -72.3328
1.575000 63.647 -74.1084
1.600000 63.692 -75.9424
1.625000 63.726 -77.8092
1.650000 63.748 -79.6835
1.675000 63.757 -81.5398
1.700000 63.753 -83.3526
1.725000 63.736 -85.0963
1.750000 63.704 -86.7456
1.775000 63.658 -88.2750
1.800000 63.597 -89.6589
1.825000 63.520 -90.8719
1.850000 63.427 -91.9637
1.875000 63.320 -93.0860
1.900000 63.200 -94.2183
1.925000 63.065 -95.3324
1.950000 62.916 -96.4000
1.975000 62.754 -97.3931
2.000000 62.578 -98.2833
2.030000 62.348 -99.1761
2.060000 62.099 -99.8315
2.090000 61.831 -100.2006
2.120000 61.544 -100.2348
2.140000 61.342 -100.0475
2.180000 60.913 -99.1034
2.200000 60.686 -98.3175
2.240000 60.110 -96.0331
2.270000 59.569 -93.7466
2.300000 58.966 -91.0415
2.330000 58.326 -87.9833
2.360000 57.676 -84.6375
2.400000 56.841 -79.8422
2.430000 56.272 -76.0799
2.470000 55.642 -70.9670
2.500000 55.301 -67.1448
2.540000 55.069 -62.1896
2.580000 55.151 -57.4448
2.620000 55.547 -52.2706
2.650000 56.016 -48.1061
2.690000 56.823 -42.3399
2.720000 57.531 -37.9671
2.760000 58.565 -32.2372
2.800000 59.647 -26.8102
2.850000 60.975 -20.7650
2.900000 62.167 -15.9145
2.950000 63.133 -12.6162
3.000000 64.024 -10.6775
3.040000 64.713 -9.9171
3.070000 65.215 -9.7338
3.110000 65.863 -9.9149
3.150000 66.485 -10.4789
3.200000 67.220 -11.5502
3.250000 67.905 -12.8227
3.300000 68.536 -14.0793
3.350000 69.104 -15.6553
3.400000 69.613 -17.7757
3.450000 70.072 -20.2729
3.500000 70.488 -22.9795
3.550000 70.870 -25.7282
3.600000 71.227 -28.3515
3.650000 71.566 -30.6820
3.700000 71.888 -32.6540
3.750000 72.177 -34.4512
3.820000 72.532 -36.7717
3.870000 72.756 -38.3498
3.950000 73.071 -40.8598
4.000000 73.248 -42.4883
4.060000 73.441 -44.5706
4.120000 73.605 -46.7751
4.180000 73.739 -49.0360
4.250000 73.866 -51.6574
4.310000 73.953 -53.8150
4.370000 74.026 -55.8208
4.440000 74.092 -57.9211
4.500000 74.124 -59.5846
4.550000 74.136 -60.8846
4.620000 74.135 -62.5804
4.680000 74.125 -63.9253
4.750000 74.107 -65.3764
4.820000 74.080 -66.6999
4.870000 74.049 -67.5604
4.940000 73.996 -68.6503
5.000000 73.948 -69.4818
5.080000 73.888 -70.4493
5.150000 73.849 -71.1650
5.220000 73.813 -71.7173
5.300000 73.775 -72.1778
5.380000 73.747 -72.5174
5.450000 73.738 -72.7656
5.520000 73.748 -73.0009
5.600000 73.781 -73.1636
5.700000 73.848 -73.2652
5.800000 73.937 -73.3928
5.900000 74.043 -73.6779
6.000000 74.177 -74.0669
6.080000 74.297 -74.4375
6.150000 74.404 -74.8085
6.220000 74.509 -75.2260
6.300000 74.626 -75.7722
6.400000 74.776 -76.5530
6.500000 74.924 -77.4023
6.600000 75.061 -78.2769
6.700000 75.186 -79.2051
6.800000 75.302 -80.1804
6.900000 75.412 -81.1378
7.000000 75.518 -82.0213
7.100000 75.615 -82.8588
7.200000 75.708 -83.6527
7.300000 75.803 -84.3914
7.400000 75.905 -85.0616
7.500000 76.007 -85.6658
7.620000 76.138 -86.3368
7.750000 76.297 -87.0296
7.880000 76.473 -87.6578
8.000000 76.648 -88.2346
8.120000 76.834 -88.8608
8.250000 77.051 -89.5659
8.380000 77.276 -90.3269
8.500000 77.484 -91.1078
8.620000 77.698 -91.9544
8.750000 77.927 -92.9345
8.850000 78.097 -93.7304
9.000000 78.347 -95.0014
9.120000 78.540 -96.0605
9.250000 78.737 -97.2356
9.380000 78.923 -98.4490
9.500000 79.085 -99.5805
9.620000 79.235 -100.7139
9.750000 79.387 -101.9519
9.880000 79.525 -103.1815
10.000000 79.640 -104.3066
10.150000 79.767 -105.6998
10.300000 79.874 -107.0468
10.440000 79.957 -108.2705
10.600000 80.031 -109.5967
10.750000 80.079 -110.7500
10.900000 80.110 -111.8154
11.060000 80.126 -112.8058
11.200000 80.126 -113.5546
11.380000 80.118 -114.3330
11.500000 80.107 -114.7244
11.720000 80.089 -115.2158
11.800000 80.087 -115.3242
12.060000 80.093 -115.4533
12.200000 80.116 -115.4483
12.410000 80.172 -115.3679
12.500000 80.204 -115.3562
12.650000 80.270 -115.3446
12.800000 80.345 -115.3904
13.150000 80.538 -115.8389
13.200000 80.565 -115.9409
13.400000 80.668 -116.4568
13.600000 80.758 -117.0878
13.800000 80.829 -117.8243
14.000000 80.880 -118.5878
14.300000 80.922 -119.7353
14.500000 80.931 -120.4339
14.750000 80.936 -121.2087
15.000000 80.939 -121.8696
15.250000 80.956 -122.4529
15.500000 80.990 -123.0330
15.750000 81.040 -123.6578
16.000000 81.103 -124.3966
16.250000 81.165 -125.2583
16.500000 81.222 -126.2266
16.750000 81.263 -127.2622
17.000000 81.288 -128.2806
17.250000 81.300 -129.2383
17.500000 81.304 -130.0822
17.750000 81.310 -130.7995
18.000000 81.323 -131.4109
18.250000 81.349 -131.9414
18.500000 81.387 -132.4494
18.750000 81.435 -132.9580
19.000000 81.487 -133.4882
19.250000 81.537 -134.0367
19.500000 81.583 -134.5823
19.750000 81.622 -135.1086
20.000000 81.655 -135.5886
20.299999 81.691 -136.0971
20.600000 81.727 -136.5361
20.900000 81.763 -136.9247
21.200001 81.803 -137.2908
21.400000 81.830 -137.5361
21.799999 81.883 -138.0450
22.000000 81.907 -138.3138
22.400000 81.950 -138.8818
22.700001 81.975 -139.3288
23.000000 81.994 -139.7859
23.299999 82.007 -140.2448
23.600000 82.015 -140.6991
24.000000 82.021 -141.2898
24.299999 82.024 -141.7169
24.700001 82.027 -142.2592
25.000000 82.032 -142.6420
25.400000 82.045 -143.1215
25.799999 82.069 -143.5845
26.200001 82.105 -144.0681
26.500000 82.136 -144.4641
26.900000 82.178 -145.0386
27.200001 82.204 -145.4822
27.600000 82.231 -146.0411
28.000000 82.251 -146.5102
28.500000 82.279 -146.9558
29.000000 82.320 -147.3258
29.500000 82.368 -147.7181
30.000000 82.407 -148.1569
30.400000 82.426 -148.5043
30.700001 82.433 -148.7386
31.100000 82.436 -148.9981
31.500000 82.440 -149.2005
32.000000 82.452 -149.4157
32.500000 82.476 -149.6688
33.000000 82.505 -150.0345
33.500000 82.528 -150.5143
34.000000 82.536 -151.0289
34.500000 82.538 -151.4921
35.000000 82.547 -151.8987
35.500000 82.567 -152.3159
36.000000 82.588 -152.7836
36.500000 82.600 -153.2537
37.000000 82.603 -153.6423
37.500000 82.608 -153.9285
38.200001 82.623 -154.2543
38.700001 82.634 -154.4893
39.500000 82.638 -154.8482
40.000000 82.635 -155.0504
40.599998 82.630 -155.3009
41.200001 82.625 -155.6263
41.799999 82.611 -156.0659
42.500000 82.568 -156.5681
43.099998 82.537 -156.7635
43.700001 82.564 -156.8568
44.400002 82.661 -157.2748
45.000000 82.744 -157.9095
45.500000 82.810 -158.4361
46.200001 82.911 -159.2552
46.799999 82.945 -160.1005
47.500000 82.881 -160.2466
48.200001 82.956 -158.8973
48.700001 83.209 -158.1719
49.400002 83.584 -159.4080
50.000000 83.604 -161.7672
50.799999 83.213 -163.0726
51.500000 82.922 -161.8088
52.200001 82.870 -160.4915
53.000000 82.874 -160.0354
53.799999 82.849 -159.9730
54.500000 82.829 -160.1668
55.200001 82.790 -160.5023
56.000000 82.753 -160.7295
57.000000 82.773 -161.0745
58.000000 82.798 -161.6098
59.000000 82.811 -161.9456
60.000000 82.830 -162.0771
60.799999 82.850 -162.1170
61.500000 82.868 -162.1784
62.200001 82.878 -162.2987
63.000000 82.873 -162.4663
64.000000 82.859 -162.6130
65.000000 82.862 -162.7643
66.000000 82.875 -163.0271
67.000000 82.883 -163.3226
68.000000 82.884 -163.5574
69.000000 82.884 -163.6907
70.000000 82.885 -163.7938
71.000000 82.878 -163.8764
72.000000 82.872 -163.9440
73.000000 82.868 -164.0611
74.000000 82.866 -164.2155
75.000000 82.870 -164.4211
76.199997 82.870 -164.6986
77.500000 82.869 -164.8808
78.800003 82.876 -164.9671
80.000000 82.889 -165.0126
81.199997 82.899 -165.1590
82.500000 82.883 -165.3526
83.800003 82.859 -165.4287
85.000000 82.856 -165.4668
86.199997 82.861 -165.6153
87.500000 82.856 -165.7899
88.500000 82.850 -165.8687
90.000000 82.842 -165.9055
91.199997 82.840 -165.8894
92.500000 82.843 -165.8784
93.800003 82.852 -165.9351
95.000000 82.854 -166.0610
96.199997 82.847 -166.1606
97.500000 82.841 -166.1908
98.800003 82.845 -166.2214
100.000000 82.841 -166.3151
101.500000 82.818 -166.4081
103.000000 82.796 -166.4395
104.400002 82.791 -166.5037
106.000000 82.787 -166.6764
107.500000 82.782 -166.7741
109.000000 82.781 -166.8169
110.599998 82.778 -166.8307
112.000000 82.769 -166.8518
113.800003 82.745 -166.9031
115.000000 82.729 -166.9113
117.199997 82.721 -166.9778
118.000000 82.720 -167.0320
120.599998 82.708 -167.1048
122.000000 82.706 -167.0792
124.099998 82.696 -167.0495
125.000000 82.688 -167.0345
126.500000 82.673 -167.0247
128.000000 82.657 -167.0490
131.500000 82.617 -167.2484
132.000000 82.610 -167.2579
134.000000 82.601 -167.1756
136.000000 82.617 -167.0941
138.000000 82.619 -167.0096
140.000000 82.599 -166.9147
143.000000 82.550 -166.9667
145.000000 82.546 -167.0456
147.500000 82.627 -167.0587
150.000000 82.672 -167.3096
152.500000 82.530 -166.9840
155.000000 82.397 -166.3450
157.500000 82.332 -166.0195
160.000000 82.309 -165.7974
162.500000 82.257 -165.4550
165.000000 82.183 -164.9554
167.500000 82.123 -164.6335
170.000000 82.048 -164.2799
172.500000 81.967 -163.5721
175.000000 81.896 -162.4955
177.500000 81.860 -160.9907
180.000000 81.891 -159.0905
182.500000 82.031 -156.9866
185.000000 82.316 -155.1903
187.500000 82.708 -154.2578
190.000000 83.101 -154.4357
192.500000 83.412 -155.5741
195.000000 83.614 -157.2201
197.500000 83.719 -158.8941
200.000000 83.730 -160.2653
203.000000 83.669 -161.3483
206.000000 83.599 -162.1087
209.000000 83.537 -162.6726
212.000000 83.476 -163.0559
214.000000 83.440 -163.2489
218.000000 83.376 -163.5392
220.000000 83.346 -163.6284
224.000000 83.295 -163.7313
227.000000 83.258 -163.7612
230.000000 83.219 -163.7399
233.000000 83.186 -163.6964
236.000000 83.161 -163.6637
240.000000 83.132 -163.6152
243.000000 83.109 -163.5307
247.000000 83.055 -163.2984
250.000000 83.022 -163.1166
254.000000 83.023 -163.0781
258.000000 83.019 -163.0187
262.000000 83.001 -162.8914
265.000000 82.989 -162.7818
269.000000 82.973 -162.5973
272.000000 82.960 -162.4657
276.000000 82.942 -162.2900
280.000000 82.923 -162.0925
285.000000 82.899 -161.8431
290.000000 82.882 -161.5883
295.000000 82.865 -161.3034
300.000000 82.843 -161.0164
304.000000 82.827 -160.7658
307.000000 82.818 -160.5629
311.000000 82.806 -160.2788
315.000000 82.797 -159.9724
320.000000 82.794 -159.5590
325.000000 82.800 -159.1551
330.000000 82.813 -158.8289
335.000000 82.827 -158.6283
340.000000 82.834 -158.4853
345.000000 82.825 -158.3297
350.000000 82.806 -158.1369
355.000000 82.800 -157.8492
360.000000 82.797 -157.5306
365.000000 82.792 -157.2563
370.000000 82.783 -157.0153
375.000000 82.775 -156.7571
382.000000 82.762 -156.3440
387.000000 82.752 -156.0378
395.000000 82.735 -155.5224
400.000000 82.725 -155.1942
406.000000 82.717 -154.8012
412.000000 82.710 -154.4294
418.000000 82.704 -154.0713
425.000000 82.700 -153.6547
431.000000 82.697 -153.2730
437.000000 82.692 -152.8429
444.000000 82.695 -152.2576
450.000000 82.700 -151.7683
455.000000 82.691 -151.4796
462.000000 82.675 -151.0758
468.000000 82.668 -150.6684
475.000000 82.661 -150.1928
482.000000 82.658 -149.7383
487.000000 82.657 -149.3949
494.000000 82.654 -148.9036
500.000000 82.652 -148.4786
508.000000 82.650 -147.8929
515.000000 82.647 -147.3796
522.000000 82.646 -146.8699
530.000000 82.647 -146.2909
538.000000 82.654 -145.7165
545.000000 82.663 -145.2099
552.000000 82.665 -144.6716
560.000000 82.662 -144.0313
570.000000 82.668 -143.2690
580.000000 82.675 -142.5164
590.000000 82.681 -141.7513
600.000000 82.691 -140.9515
608.000000 82.697 -140.3166
615.000000 82.702 -139.7661
622.000000 82.710 -139.2182
630.000000 82.722 -138.5981
640.000000 82.744 -137.8573
650.000000 82.772 -137.0911
660.000000 82.785 -136.1860
670.000000 82.801 -135.3050
680.000000 82.822 -134.4635
690.000000 82.844 -133.6227
700.000000 82.871 -132.7937
710.000000 82.901 -131.9403
720.000000 82.933 -131.0680
730.000000 82.966 -130.2029
740.000000 82.998 -129.3236
750.000000 83.032 -128.4442
762.000000 83.087 -127.4570
775.000000 83.153 -126.3595
788.000000 83.216 -125.2520
800.000000 83.278 -124.2466
812.000000 83.344 -123.2134
825.000000 83.420 -122.1009
838.000000 83.499 -121.0699
850.000000 83.577 -120.1309
862.000000 83.668 -119.1393
875.000000 83.770 -118.0748
885.000000 83.848 -117.2849
900.000000 83.968 -116.1574
912.000000 84.071 -115.2815
925.000000 84.186 -114.3443
938.000000 84.306 -113.4568
950.000000 84.417 -112.6799
962.000000 84.524 -111.9133
975.000000 84.642 -111.1157
988.000000 84.764 -110.3609
1000.000000 84.879 -109.7017
1015.000000 85.023 -108.9154
1030.000000 85.167 -108.1661
1044.000000 85.300 -107.4966
1060.000000 85.453 -106.7956
1075.000000 85.594 -106.2132
1090.000000 85.732 -105.6600
1106.000000 85.877 -105.0999
1120.000000 86.001 -104.6491
1138.000000 86.155 -104.1300
1150.000000 86.255 -103.7998
1172.000000 86.436 -103.2198
1180.000000 86.499 -103.0292
1206.000000 86.694 -102.4694
1220.000000 86.792 -102.2087
1241.000000 86.924 -101.8671
1250.000000 86.972 -101.7237
1265.000000 87.042 -101.4684
1280.000000 87.104 -101.1470
1315.000000 87.251 -100.0895
1320.000000 87.275 -99.9180
1340.000000 87.376 -99.2259
1360.000000 87.486 -98.5442
1380.000000 87.602 -97.8775
1400.000000 87.719 -97.2426
1430.000000 87.902 -96.3474
1450.000000 88.026 -95.7713
1475.000000 88.179 -95.1020
1500.000000 88.336 -94.4981
1525.000000 88.494 -93.9653
1550.000000 88.648 -93.5375
1575.000000 88.794 -93.1843
1600.000000 88.923 -92.9071
1625.000000 89.027 -92.6747
1650.000000 89.109 -92.4052
1675.000000 89.173 -92.0045
1700.000000 89.229 -91.4456
1725.000000 89.287 -90.7547
1750.000000 89.356 -89.9667
1775.000000 89.436 -89.1106
1800.000000 89.528 -88.2185
1825.000000 89.632 -87.3104
1850.000000 89.747 -86.3952
1875.000000 89.876 -85.4689
1900.000000 90.019 -84.5528
1925.000000 90.176 -83.6738
1950.000000 90.348 -82.8692
1975.000000 90.530 -82.1848
2000.000000 90.716 -81.6401
2030.000000 90.931 -81.1536
2060.000000 91.129 -80.7861
2090.000000 91.306 -80.4536
2120.000000 91.470 -80.0812
2140.000000 91.577 -79.7914
2180.000000 91.795 -79.0779
2200.000000 91.914 -78.6596
2240.000000 92.194 -77.7997
2270.000000 92.447 -77.2907
2300.000000 92.725 -77.0714
2330.000000 92.999 -77.2091
2360.000000 93.248 -77.6346
2400.000000 93.528 -78.4212
2430.000000 93.707 -79.0434
2470.000000 93.924 -79.8628
2500.000000 94.080 -80.5262
2540.000000 94.277 -81.5921
2580.000000 94.435 -82.8783
2620.000000 94.537 -84.2357
2650.000000 94.581 -85.1998
2690.000000 94.608 -86.3332
2720.000000 94.619 -87.0650
2760.000000 94.630 -87.9467
2800.000000 94.644 -88.8243
2850.000000 94.651 -90.0375
2900.000000 94.622 -91.3988
2950.000000 94.536 -92.8085
3000.000000 94.392 -94.1211
3040.000000 94.241 -95.0068
3070.000000 94.111 -95.5509
3110.000000 93.920 -96.1106
3150.000000 93.717 -96.4798
3200.000000 93.453 -96.6824
3250.000000 93.186 -96.6263
3300.000000 92.924 -96.3499
3350.000000 92.667 -95.8801
3400.000000 92.418 -95.2516
3450.000000 92.176 -94.4931
3500.000000 91.941 -93.6221
3550.000000 91.713 -92.6528
3600.000000 91.492 -91.5804
3650.000000 91.277 -90.4104
3700.000000 91.069 -89.1519
3750.000000 90.869 -87.8074
3820.000000 90.604 -85.7885
3870.000000 90.429 -84.2740
3950.000000 90.168 -81.7613
4000.000000 90.015 -80.1411
4060.000000 89.842 -78.1591
4120.000000 89.680 -76.1381
4180.000000 89.527 -74.0752
4250.000000 89.361 -71.6135
4310.000000 89.229 -69.4650
4370.000000 89.107 -67.2901
4440.000000 88.980 -64.7340
4500.000000 88.881 -62.5131
4550.000000 88.806 -60.6462
4620.000000 88.711 -58.0322
4680.000000 88.640 -55.7847
4750.000000 88.569 -53.1519
4820.000000 88.508 -50.5270
4870.000000 88.473 -48.6619
4940.000000 88.433 -46.0553
5000.000000 88.409 -43.8236
5080.000000 88.388 -40.8637
5150.000000 88.379 -38.2953
5220.000000 88.380 -35.7505
5300.000000 88.394 -32.8781
5380.000000 88.421 -30.0449
5450.000000 88.454 -27.6021
5520.000000 88.495 -25.1910
5600.000000 88.552 -22.4849
5700.000000 88.637 -19.1832
5800.000000 88.740 -15.9648
5900.000000 88.859 -12.8303
6000.000000 88.991 -9.7779
6080.000000 89.109 -7.4110
6150.000000 89.220 -5.3990
6220.000000 89.337 -3.4408
6300.000000 89.480 -1.2621
6400.000000 89.674 1.3683
6500.000000 89.885 3.8837
6600.000000 90.117 6.2962
6700.000000 90.372 8.5937
6800.000000 90.653 10.7567
6900.000000 90.968 12.7727
7000.000000 91.323 14.5941
7100.000000 91.723 16.1520
7200.000000 92.173 17.3686
7300.000000 92.676 18.1552
7400.000000 93.238 18.3956
7500.000000 93.857 17.8992
7620.000000 94.663 15.9757
7750.000000 95.548 11.6658
7880.000000 96.297 4.4172
8000.000000 96.670 -4.9221
8120.000000 96.562 -15.8443
8250.000000 95.832 -27.3917
8380.000000 94.567 -36.6237
8500.000000 93.117 -42.3487
8620.000000 91.570 -45.5926
8750.000000 89.917 -46.9208
8850.000000 88.705 -46.7897
9000.000000 87.017 -45.2506
9120.000000 85.778 -43.1792
9250.000000 84.543 -40.3523
9380.000000 83.407 -37.0791
9500.000000 82.436 -33.7621
9620.000000 81.534 -30.2451
9750.000000 80.630 -26.2510
9880.000000 79.794 -22.1096
10000.000000 79.075 -18.1854
10150.000000 78.240 -13.1576
10300.000000 77.468 -8.0264
10440.000000 76.801 -3.1870
10600.000000 76.101 2.3950
10750.000000 75.504 7.6376
10900.000000 74.956 12.8778
11060.000000 74.424 18.5134
11200.000000 74.001 23.4572
11380.000000 73.514 29.7632
11500.000000 73.223 33.9508
11720.000000 72.753 41.5551
11800.000000 72.603 44.2699
12060.000000 72.186 52.9694
12200.000000 72.003 57.5592
12410.000000 71.784 64.2760
12500.000000 71.708 67.1149
12650.000000 71.607 71.7634
12800.000000 71.544 76.2844
13150.000000 71.521 86.2614
13200.000000 71.531 87.6059
13400.000000 71.620 92.7869
13600.000000 71.776 97.5432
13800.000000 71.998 101.9525
14000.000000 72.300 106.0311
14300.000000 72.934 111.0871
14500.000000 73.526 113.5146
14750.000000 74.492 115.3946
15000.000000 75.807 115.3286
15250.000000 77.641 112.1110
15500.000000 80.024 102.8447
15750.000000 82.329 81.8895
16000.000000 83.203 46.5604
16250.000000 81.802 8.8083
16500.000000 78.686 -18.2574
16750.000000 75.128 -36.1389
17000.000000 71.984 -50.5153
17250.000000 69.431 -64.5137
17500.000000 67.399 -79.4512
17750.000000 65.805 -95.8918
18000.000000 64.604 -114.0871
18250.000000 63.756 -133.9852
18500.000000 63.208 -155.6873
18750.000000 62.902 -179.3622
19000.000000 62.718 154.6581
19250.000000 62.527 125.8218
19500.000000 62.187 94.4619
19750.000000 61.650 64.2604
