* Measurement data measured by REW V5.20.9
* Source: Headset (USB-C to 3.5mm Headphone Jack Adapter), MICROPHONE (Master Volume), L, volume: 0.260. Timing signal peak level -32.8 dBFS, measurement signal peak level -28.1 dBFS
* Format: 256k Log Swept Sine, 1 sweep at -12.0 dBFS using an acoustic timing reference
* Dated: 08/08/2024 6:44:56 PM
* REW Settings:
*  C-weighting compensation: Off
*  Target level: 75.0 dB
* Note: ; Delay -0.0308 ms (-11 mm, -0.42 in) using estimated IR delay relative to Acoustic reference on SPEAKER L with no timing offset
* Measurement: EW300 DSP Red L
* Smoothing: 1/24 octave
* Frequency Step: 1/48 octave
* Start Frequency: 1.000 Hz
*
* Freq(Hz) SPL(dB) Phase(degrees)
1.000000 45.084 61.7477
1.015000 45.319 60.1795
1.030000 45.551 58.6759
1.044000 45.766 57.3367
1.060000 46.007 55.8891
1.075000 46.230 54.6192
1.090000 46.448 53.4405
1.106000 46.675 52.2907
1.120000 46.873 51.3750
1.138000 47.127 50.3130
1.150000 47.295 49.6719
1.172000 47.603 48.6237
1.180000 47.715 48.2801
1.206000 48.076 47.2859
1.220000 48.269 46.8198
1.241000 48.558 46.1971
1.250000 48.681 45.9546
1.265000 48.885 45.5779
1.280000 49.088 45.2298
1.315000 49.557 44.4930
1.320000 49.624 44.3929
1.340000 49.889 43.9958
1.360000 50.151 43.5926
1.380000 50.411 43.1682
1.400000 50.668 42.7074
1.430000 51.049 41.9146
1.450000 51.299 41.2962
1.475000 51.608 40.4043
1.500000 51.912 39.4448
1.525000 52.212 38.4431
1.550000 52.508 37.4076
1.575000 52.801 36.3469
1.600000 53.089 35.2693
1.625000 53.374 34.1835
1.650000 53.656 33.0979
1.675000 53.933 32.0210
1.700000 54.208 30.9612
1.725000 54.479 29.9271
1.750000 54.748 28.9272
1.775000 55.013 27.9699
1.800000 55.275 27.0638
1.825000 55.534 26.2173
1.850000 55.791 25.4343
1.875000 56.044 24.7049
1.900000 56.293 24.0229
1.925000 56.539 23.3823
1.950000 56.781 22.7770
1.975000 57.020 22.2013
2.000000 57.256 21.6491
2.030000 57.535 21.0090
2.060000 57.811 20.3839
2.090000 58.082 19.7635
2.120000 58.350 19.1375
2.140000 58.527 18.7119
2.180000 58.876 17.8273
2.200000 59.049 17.3624
2.240000 59.389 16.4137
2.270000 59.639 15.6974
2.300000 59.885 14.9782
2.330000 60.128 14.2577
2.360000 60.367 13.5371
2.400000 60.679 12.5785
2.430000 60.910 11.8630
2.470000 61.213 10.9159
2.500000 61.437 10.2125
2.540000 61.732 9.2866
2.580000 62.022 8.3758
2.620000 62.306 7.4710
2.650000 62.515 6.7960
2.690000 62.789 5.9021
2.720000 62.991 5.2373
2.760000 63.256 4.3602
2.800000 63.517 3.4954
2.850000 63.836 2.4347
2.900000 64.149 1.4001
2.950000 64.456 0.3966
3.000000 64.755 -0.5664
3.040000 64.990 -1.3123
3.070000 65.163 -1.8608
3.110000 65.390 -2.5817
3.150000 65.613 -3.2957
3.200000 65.886 -4.1863
3.250000 66.154 -5.0844
3.300000 66.418 -6.0002
3.350000 66.677 -6.9390
3.400000 66.929 -7.8931
3.450000 67.175 -8.8529
3.500000 67.417 -9.8086
3.550000 67.653 -10.7503
3.600000 67.886 -11.6684
3.650000 68.115 -12.5532
3.700000 68.339 -13.3969
3.750000 68.559 -14.2044
3.820000 68.860 -15.2905
3.870000 69.069 -16.0462
3.950000 69.397 -17.2446
4.000000 69.598 -18.0003
4.060000 69.835 -18.9259
4.120000 70.066 -19.8647
4.180000 70.293 -20.8070
4.250000 70.551 -21.8990
4.310000 70.768 -22.8186
4.370000 70.981 -23.7137
4.440000 71.225 -24.7178
4.500000 71.429 -25.5480
4.550000 71.597 -26.2238
4.620000 71.827 -27.1529
4.680000 72.020 -27.9410
4.750000 72.242 -28.8602
4.820000 72.459 -29.7834
4.870000 72.612 -30.4408
4.940000 72.822 -31.3554
5.000000 72.998 -32.1314
5.080000 73.229 -33.1504
5.150000 73.427 -34.0234
5.220000 73.622 -34.8790
5.300000 73.839 -35.8391
5.380000 74.052 -36.7838
5.450000 74.235 -37.6007
5.520000 74.416 -38.4108
5.600000 74.618 -39.3253
5.700000 74.864 -40.4513
5.800000 75.105 -41.5606
5.900000 75.341 -42.6554
6.000000 75.571 -43.7345
6.080000 75.752 -44.5866
6.150000 75.907 -45.3241
6.220000 76.060 -46.0545
6.300000 76.233 -46.8790
6.400000 76.444 -47.8944
6.500000 76.650 -48.8973
6.600000 76.853 -49.8928
6.700000 77.051 -50.8820
6.800000 77.244 -51.8624
6.900000 77.433 -52.8324
7.000000 77.619 -53.7903
7.100000 77.800 -54.7365
7.200000 77.976 -55.6717
7.300000 78.149 -56.5971
7.400000 78.318 -57.5138
7.500000 78.482 -58.4216
7.620000 78.675 -59.4961
7.750000 78.878 -60.6377
7.880000 79.074 -61.7568
8.000000 79.251 -62.7710
8.120000 79.424 -63.7673
8.250000 79.606 -64.8257
8.380000 79.783 -65.8645
8.500000 79.944 -66.8072
8.620000 80.101 -67.7332
8.750000 80.268 -68.7212
8.850000 80.393 -69.4725
9.000000 80.578 -70.5831
9.120000 80.722 -71.4595
9.250000 80.874 -72.3991
9.380000 81.023 -73.3276
9.500000 81.157 -74.1729
9.620000 81.287 -75.0065
9.750000 81.424 -75.8969
9.880000 81.558 -76.7709
10.000000 81.679 -77.5619
10.150000 81.825 -78.5305
10.300000 81.969 -79.4750
10.440000 82.100 -80.3327
10.600000 82.248 -81.2928
10.750000 82.385 -82.1762
10.900000 82.521 -83.0450
11.060000 82.665 -83.9713
11.200000 82.789 -84.7788
11.380000 82.946 -85.8258
11.500000 83.048 -86.5332
11.720000 83.229 -87.8421
11.800000 83.292 -88.3228
12.060000 83.484 -89.8917
12.200000 83.579 -90.7250
12.410000 83.709 -91.9527
12.500000 83.762 -92.4573
12.650000 83.844 -93.2750
12.800000 83.922 -94.0532
13.150000 84.098 -95.6867
13.200000 84.124 -95.9033
13.400000 84.228 -96.7199
13.600000 84.339 -97.5040
13.800000 84.459 -98.2666
14.000000 84.584 -99.0563
14.300000 84.780 -100.3160
14.500000 84.909 -101.2349
14.750000 85.061 -102.4541
15.000000 85.199 -103.7370
15.250000 85.318 -105.0300
15.500000 85.421 -106.2860
15.750000 85.510 -107.4788
16.000000 85.593 -108.5826
16.250000 85.674 -109.6127
16.500000 85.758 -110.5856
16.750000 85.846 -111.5309
17.000000 85.937 -112.4794
17.250000 86.028 -113.4394
17.500000 86.116 -114.4187
17.750000 86.198 -115.4031
18.000000 86.275 -116.3808
18.250000 86.345 -117.3384
18.500000 86.412 -118.2652
18.750000 86.477 -119.1627
19.000000 86.540 -120.0325
19.250000 86.602 -120.8845
19.500000 86.664 -121.7232
19.750000 86.724 -122.5520
20.000000 86.782 -123.3708
20.299999 86.849 -124.3350
20.600000 86.913 -125.2751
20.900000 86.975 -126.1895
21.200001 87.036 -127.0821
21.400000 87.077 -127.6700
21.799999 87.156 -128.8371
22.000000 87.195 -129.4186
22.400000 87.268 -130.5757
22.700001 87.318 -131.4297
23.000000 87.365 -132.2617
23.299999 87.411 -133.0680
23.600000 87.455 -133.8522
24.000000 87.516 -134.8791
24.299999 87.562 -135.6517
24.700001 87.620 -136.6998
25.000000 87.658 -137.4962
25.400000 87.700 -138.5482
25.799999 87.731 -139.5477
26.200001 87.757 -140.4631
26.500000 87.778 -141.0964
26.900000 87.812 -141.8981
27.200001 87.843 -142.4982
27.600000 87.889 -143.3312
28.000000 87.932 -144.2137
28.500000 87.973 -145.3497
29.000000 88.001 -146.4490
29.500000 88.022 -147.4739
30.000000 88.046 -148.4498
30.400000 88.068 -149.2299
30.700001 88.083 -149.8245
31.100000 88.100 -150.6247
31.500000 88.111 -151.4150
32.000000 88.119 -152.3573
32.500000 88.127 -153.2348
33.000000 88.138 -154.0675
33.500000 88.155 -154.8903
34.000000 88.174 -155.7275
34.500000 88.190 -156.5767
35.000000 88.201 -157.4189
35.500000 88.208 -158.2353
36.000000 88.212 -159.0212
36.500000 88.216 -159.7831
37.000000 88.218 -160.5288
37.500000 88.217 -161.2607
38.200001 88.214 -162.2602
38.700001 88.209 -162.9560
39.500000 88.198 -164.0416
40.000000 88.191 -164.7082
40.599998 88.182 -165.5042
41.200001 88.170 -166.2955
41.799999 88.157 -167.0708
42.500000 88.142 -167.9518
43.099998 88.128 -168.6954
43.700001 88.112 -169.4183
44.400002 88.093 -170.2193
45.000000 88.079 -170.8913
45.500000 88.065 -171.4578
46.200001 88.038 -172.2337
46.799999 88.011 -172.8596
47.500000 87.975 -173.5831
48.200001 87.925 -174.2700
48.700001 87.883 -174.6533
49.400002 87.847 -175.0399
50.000000 87.847 -175.4372
50.799999 87.852 -176.2832
51.500000 87.823 -177.1198
52.200001 87.782 -177.8399
53.000000 87.743 -178.6074
53.799999 87.701 -179.3621
54.500000 87.666 -179.9474
55.200001 87.642 179.4526
56.000000 87.605 178.6807
57.000000 87.528 177.8613
58.000000 87.464 177.2576
59.000000 87.413 176.6019
60.000000 87.356 175.9303
60.799999 87.310 175.3981
61.500000 87.266 174.9347
62.200001 87.221 174.5009
63.000000 87.173 174.0335
64.000000 87.116 173.4469
65.000000 87.059 172.8658
66.000000 87.000 172.2743
67.000000 86.930 171.7109
68.000000 86.859 171.2291
69.000000 86.793 170.7719
70.000000 86.729 170.3311
71.000000 86.670 169.8965
72.000000 86.613 169.4393
73.000000 86.551 168.9828
74.000000 86.487 168.5555
75.000000 86.423 168.1632
76.199997 86.348 167.7138
77.500000 86.266 167.2541
78.800003 86.185 166.8301
80.000000 86.112 166.4729
81.199997 86.040 166.1275
82.500000 85.959 165.7713
83.800003 85.879 165.4430
85.000000 85.806 165.1603
86.199997 85.736 164.8739
87.500000 85.661 164.5733
88.500000 85.604 164.3586
90.000000 85.519 164.0623
91.199997 85.453 163.8507
92.500000 85.381 163.6258
93.800003 85.308 163.4067
95.000000 85.241 163.2210
96.199997 85.180 163.0355
97.500000 85.117 162.8298
98.800003 85.056 162.6212
100.000000 84.996 162.4377
101.500000 84.917 162.2934
103.000000 84.844 162.1926
104.400002 84.777 162.0831
106.000000 84.702 161.9421
107.500000 84.632 161.8047
109.000000 84.564 161.6838
110.599998 84.496 161.5685
112.000000 84.436 161.4781
113.800003 84.360 161.3729
115.000000 84.309 161.3044
117.199997 84.219 161.1766
118.000000 84.187 161.1324
120.599998 84.085 161.0106
122.000000 84.031 160.9623
124.099998 83.951 160.8894
125.000000 83.918 160.8547
126.500000 83.863 160.7934
128.000000 83.809 160.7410
131.500000 83.682 160.6844
132.000000 83.663 160.6841
134.000000 83.587 160.6935
136.000000 83.519 160.6573
138.000000 83.451 160.6008
140.000000 83.384 160.5853
143.000000 83.279 160.5873
145.000000 83.214 160.5687
147.500000 83.154 160.5136
150.000000 83.090 160.4232
152.500000 82.993 160.5530
155.000000 82.902 160.7479
157.500000 82.821 160.8279
160.000000 82.746 160.8807
162.500000 82.674 160.9726
165.000000 82.602 161.0723
167.500000 82.531 161.1575
170.000000 82.462 161.2622
172.500000 82.393 161.3937
175.000000 82.324 161.5264
177.500000 82.257 161.6616
180.000000 82.192 161.8111
182.500000 82.129 161.9634
185.000000 82.068 162.1099
187.500000 82.009 162.2629
190.000000 81.951 162.4279
192.500000 81.893 162.6028
195.000000 81.843 162.7677
197.500000 81.799 162.9321
200.000000 81.754 163.1071
203.000000 81.684 163.3564
206.000000 81.613 163.6167
209.000000 81.550 163.8555
212.000000 81.491 164.1017
214.000000 81.452 164.2698
218.000000 81.380 164.6051
220.000000 81.346 164.7791
224.000000 81.278 165.1356
227.000000 81.232 165.3987
230.000000 81.186 165.6711
233.000000 81.140 165.9525
236.000000 81.093 166.2295
240.000000 81.033 166.5861
243.000000 80.995 166.8428
247.000000 80.958 167.1778
250.000000 80.929 167.4436
254.000000 80.871 167.8322
258.000000 80.815 168.2160
262.000000 80.772 168.5867
265.000000 80.740 168.8735
269.000000 80.701 169.2385
272.000000 80.674 169.4999
276.000000 80.638 169.8517
280.000000 80.604 170.1974
285.000000 80.566 170.6090
290.000000 80.529 171.0177
295.000000 80.493 171.4410
300.000000 80.459 171.8724
304.000000 80.433 172.1677
307.000000 80.412 172.3771
311.000000 80.385 172.6653
315.000000 80.358 172.9609
320.000000 80.327 173.3344
325.000000 80.294 173.7043
330.000000 80.263 174.0844
335.000000 80.237 174.4773
340.000000 80.211 174.8576
345.000000 80.183 175.2056
350.000000 80.159 175.5432
355.000000 80.140 175.9274
360.000000 80.122 176.3127
365.000000 80.103 176.6722
370.000000 80.084 177.0176
375.000000 80.064 177.3588
382.000000 80.037 177.8338
387.000000 80.018 178.1680
395.000000 79.990 178.7139
400.000000 79.973 179.0557
406.000000 79.952 179.4478
412.000000 79.933 179.8448
418.000000 79.915 -179.7462
425.000000 79.894 -179.2754
431.000000 79.877 -178.8906
437.000000 79.862 -178.5172
444.000000 79.849 -178.0802
450.000000 79.838 -177.6979
455.000000 79.825 -177.3551
462.000000 79.806 -176.8799
468.000000 79.792 -176.4921
475.000000 79.778 -176.0455
482.000000 79.764 -175.5983
487.000000 79.755 -175.2764
494.000000 79.747 -174.8230
500.000000 79.739 -174.4359
508.000000 79.723 -173.9342
515.000000 79.711 -173.4964
522.000000 79.703 -173.0463
530.000000 79.693 -172.5193
538.000000 79.683 -171.9963
545.000000 79.675 -171.5365
552.000000 79.668 -171.0866
560.000000 79.663 -170.5984
570.000000 79.655 -169.9794
580.000000 79.649 -169.3383
590.000000 79.647 -168.6770
600.000000 79.644 -168.0190
608.000000 79.643 -167.5163
615.000000 79.645 -167.0711
622.000000 79.646 -166.6148
630.000000 79.649 -166.0918
640.000000 79.656 -165.4521
650.000000 79.665 -164.8141
660.000000 79.671 -164.1439
670.000000 79.679 -163.4749
680.000000 79.690 -162.8159
690.000000 79.704 -162.1800
700.000000 79.719 -161.5567
710.000000 79.735 -160.8917
720.000000 79.753 -160.2141
730.000000 79.775 -159.5433
740.000000 79.802 -158.8789
750.000000 79.831 -158.2179
762.000000 79.862 -157.4272
775.000000 79.902 -156.5809
788.000000 79.947 -155.7350
800.000000 79.993 -154.9496
812.000000 80.044 -154.1690
825.000000 80.105 -153.3291
838.000000 80.172 -152.4987
850.000000 80.236 -151.7525
862.000000 80.301 -151.0085
875.000000 80.376 -150.2167
885.000000 80.437 -149.6263
900.000000 80.534 -148.7700
912.000000 80.616 -148.1016
925.000000 80.707 -147.4096
938.000000 80.801 -146.7607
950.000000 80.890 -146.1906
962.000000 80.981 -145.6416
975.000000 81.082 -145.0726
988.000000 81.184 -144.5389
1000.000000 81.280 -144.0782
1015.000000 81.401 -143.5347
1030.000000 81.522 -143.0327
1044.000000 81.635 -142.5996
1060.000000 81.763 -142.1527
1075.000000 81.881 -141.7765
1090.000000 81.999 -141.4361
1106.000000 82.122 -141.1028
1120.000000 82.229 -140.8257
1138.000000 82.364 -140.5085
1150.000000 82.451 -140.3179
1172.000000 82.608 -139.9991
1180.000000 82.664 -139.8929
1206.000000 82.841 -139.5761
1220.000000 82.933 -139.4273
1241.000000 83.066 -139.2240
1250.000000 83.122 -139.1361
1265.000000 83.215 -138.9893
1280.000000 83.307 -138.8429
1315.000000 83.515 -138.5213
1320.000000 83.544 -138.4813
1340.000000 83.658 -138.3347
1360.000000 83.771 -138.1992
1380.000000 83.879 -138.0700
1400.000000 83.987 -137.9462
1430.000000 84.150 -137.7760
1450.000000 84.258 -137.6661
1475.000000 84.393 -137.5317
1500.000000 84.525 -137.4147
1525.000000 84.657 -137.3109
1550.000000 84.789 -137.2253
1575.000000 84.921 -137.1551
1600.000000 85.053 -137.1042
1625.000000 85.185 -137.0705
1650.000000 85.318 -137.0531
1675.000000 85.450 -137.0570
1700.000000 85.582 -137.0854
1725.000000 85.714 -137.1382
1750.000000 85.846 -137.2147
1775.000000 85.977 -137.3190
1800.000000 86.107 -137.4520
1825.000000 86.235 -137.6106
1850.000000 86.362 -137.7935
1875.000000 86.488 -138.0028
1900.000000 86.614 -138.2366
1925.000000 86.738 -138.4943
1950.000000 86.861 -138.7791
1975.000000 86.982 -139.0920
2000.000000 87.100 -139.4304
2030.000000 87.238 -139.8700
2060.000000 87.371 -140.3539
2090.000000 87.501 -140.8752
2120.000000 87.625 -141.4109
2140.000000 87.706 -141.7702
2180.000000 87.863 -142.5174
2200.000000 87.936 -142.9199
2240.000000 88.072 -143.7937
2270.000000 88.168 -144.4886
2300.000000 88.257 -145.1872
2330.000000 88.341 -145.8779
2360.000000 88.421 -146.5767
2400.000000 88.512 -147.5517
2430.000000 88.570 -148.3136
2470.000000 88.639 -149.3461
2500.000000 88.683 -150.1248
2540.000000 88.731 -151.1591
2580.000000 88.768 -152.1833
2620.000000 88.795 -153.1885
2650.000000 88.808 -153.9281
2690.000000 88.817 -154.8896
2720.000000 88.818 -155.5886
2760.000000 88.812 -156.4898
2800.000000 88.799 -157.3508
2850.000000 88.774 -158.3691
2900.000000 88.740 -159.3285
2950.000000 88.699 -160.2255
3000.000000 88.653 -161.0564
3040.000000 88.613 -161.6739
3070.000000 88.582 -162.1122
3110.000000 88.539 -162.6668
3150.000000 88.496 -163.1882
3200.000000 88.441 -163.7973
3250.000000 88.386 -164.3656
3300.000000 88.332 -164.8960
3350.000000 88.279 -165.3959
3400.000000 88.228 -165.8670
3450.000000 88.179 -166.3143
3500.000000 88.132 -166.7455
3550.000000 88.087 -167.1611
3600.000000 88.044 -167.5751
3650.000000 88.003 -167.9929
3700.000000 87.963 -168.4104
3750.000000 87.926 -168.8330
3820.000000 87.874 -169.4430
3870.000000 87.836 -169.8699
3950.000000 87.781 -170.5136
4000.000000 87.744 -170.9552
4060.000000 87.693 -171.5760
4120.000000 87.639 -172.2608
4180.000000 87.578 -172.9602
4250.000000 87.502 -173.7344
4310.000000 87.429 -174.4069
4370.000000 87.343 -175.1524
4440.000000 87.231 -176.0905
4500.000000 87.125 -176.9075
4550.000000 87.027 -177.5867
4620.000000 86.879 -178.5277
4680.000000 86.741 -179.3176
4750.000000 86.567 179.7847
4820.000000 86.376 178.9275
4870.000000 86.230 178.3543
4940.000000 86.012 177.6519
5000.000000 85.815 177.1673
5080.000000 85.535 176.6250
5150.000000 85.275 176.1984
5220.000000 85.007 175.8574
5300.000000 84.691 175.6186
5380.000000 84.371 175.5494
5450.000000 84.091 175.6348
5520.000000 83.811 175.8678
5600.000000 83.496 176.3504
5700.000000 83.116 177.2217
5800.000000 82.746 178.2623
5900.000000 82.396 179.5543
6000.000000 82.067 -178.9581
6080.000000 81.815 -177.7530
6150.000000 81.601 -176.7184
6220.000000 81.394 -175.6704
6300.000000 81.167 -174.4214
6400.000000 80.895 -172.7628
6500.000000 80.635 -170.9600
6600.000000 80.392 -168.9792
6700.000000 80.177 -166.8054
6800.000000 79.999 -164.4505
6900.000000 79.871 -161.9604
7000.000000 79.799 -159.3904
7100.000000 79.792 -156.8259
7200.000000 79.854 -154.3735
7300.000000 79.982 -152.1394
7400.000000 80.171 -150.2379
7500.000000 80.412 -148.7696
7620.000000 80.750 -147.7086
7750.000000 81.141 -147.5629
7880.000000 81.508 -148.5640
8000.000000 81.772 -150.4823
8120.000000 81.915 -153.1896
8250.000000 81.893 -156.6517
8380.000000 81.669 -160.1769
8500.000000 81.296 -163.0552
8620.000000 80.796 -165.2602
8750.000000 80.160 -166.6997
8850.000000 79.636 -167.1048
9000.000000 78.847 -166.6378
9120.000000 78.255 -165.4830
9250.000000 77.678 -163.6757
9380.000000 77.170 -161.4925
9500.000000 76.755 -159.2614
9620.000000 76.383 -156.8765
9750.000000 76.017 -154.1325
9880.000000 75.683 -151.1947
10000.000000 75.400 -148.2511
10150.000000 75.082 -144.1156
10300.000000 74.833 -139.2663
10440.000000 74.727 -133.9181
10600.000000 74.892 -126.9327
10750.000000 75.453 -120.3489
10900.000000 76.398 -115.0645
11060.000000 77.649 -112.0307
11200.000000 78.778 -111.7974
11380.000000 80.137 -114.3642
11500.000000 80.954 -117.5923
11720.000000 82.195 -126.4273
11800.000000 82.531 -130.5503
12060.000000 83.001 -146.3199
12200.000000 82.796 -155.0802
12410.000000 81.957 -166.2499
12500.000000 81.463 -169.9445
12650.000000 80.566 -174.5703
12800.000000 79.671 -177.5320
13150.000000 77.956 179.6519
13200.000000 77.765 179.5176
13400.000000 77.132 179.1373
13600.000000 76.653 178.3892
13800.000000 76.266 176.9838
14000.000000 75.927 175.0551
14300.000000 75.466 171.4702
14500.000000 75.184 168.6421
14750.000000 74.852 164.5535
15000.000000 74.538 159.8088
15250.000000 74.232 154.2986
15500.000000 73.905 147.8993
15750.000000 73.520 140.5845
16000.000000 73.034 132.5085
16250.000000 72.417 123.9998
16500.000000 71.691 115.4998
16750.000000 70.921 107.1618
17000.000000 70.164 98.7349
17250.000000 69.438 89.9120
17500.000000 68.742 80.4927
17750.000000 68.087 70.3091
18000.000000 67.490 58.9957
18250.000000 66.953 45.9634
18500.000000 66.426 30.4553
18750.000000 65.789 11.8084
19000.000000 64.878 -10.0955
19250.000000 63.511 -34.5859
19500.000000 61.566 -59.9666
19750.000000 59.114 -82.6524
