* Measurement data measured by REW V5.20.9
* Source: Headset (USB-C to 3.5mm Headphone Jack Adapter), MICROPHONE (Master Volume), R, volume: 0.800. Timing signal peak level -47.9 dBFS, measurement signal peak level -21.0 dBFS
* Format: 256k Log Swept Sine, 1 sweep at -12.0 dBFS using an acoustic timing reference
* Dated: 13/07/2022 8:58:28 PM
* REW Settings:
*  C-weighting compensation: Off
*  Target level: 75.0 dB
* Note: ; Delay -0.1080 ms (-37 mm, -1.46 in) using estimated IR delay relative to Acoustic reference on  L with no timing offset
* Measurement: EX15AP R
* Smoothing: 1/24 octave
* Frequency Step: 1/48 octave
* Start Frequency: 1.000 Hz
*
* Freq(Hz) SPL(dB) Phase(degrees)
1.000000 51.649 -62.1524
1.015000 51.599 -62.5312
1.030000 51.549 -62.8394
1.044000 51.502 -63.0580
1.060000 51.450 -63.2200
1.075000 51.402 -63.2806
1.090000 51.355 -63.2468
1.106000 51.304 -63.1004
1.120000 51.255 -62.8786
1.138000 51.183 -62.4728
1.150000 51.130 -62.1314
1.172000 51.027 -61.3695
1.180000 50.988 -61.0518
1.206000 50.855 -59.8835
1.220000 50.782 -59.1764
1.241000 50.672 -58.0261
1.250000 50.625 -57.5037
1.265000 50.549 -56.5985
1.280000 50.476 -55.6552
1.315000 50.320 -53.3388
1.320000 50.300 -52.9979
1.340000 50.227 -51.6180
1.360000 50.167 -50.2226
1.380000 50.123 -48.8254
1.400000 50.096 -47.4405
1.430000 50.094 -45.4164
1.450000 50.122 -44.1228
1.475000 50.191 -42.5739
1.500000 50.296 -40.9537
1.525000 50.433 -39.2417
1.550000 50.598 -37.4582
1.575000 50.789 -35.6235
1.600000 51.002 -33.7578
1.625000 51.235 -31.8813
1.650000 51.484 -30.0143
1.675000 51.746 -28.1770
1.700000 52.018 -26.3896
1.725000 52.298 -24.6724
1.750000 52.581 -23.0456
1.775000 52.866 -21.5294
1.800000 53.148 -20.1442
1.825000 53.425 -18.9100
1.850000 53.702 -17.8224
1.875000 53.993 -16.8303
1.900000 54.298 -15.9275
1.925000 54.614 -15.1103
1.950000 54.938 -14.3747
1.975000 55.269 -13.7171
2.000000 55.604 -13.1336
2.030000 56.007 -12.5259
2.060000 56.409 -12.0129
2.090000 56.804 -11.5879
2.120000 57.190 -11.2445
2.140000 57.440 -11.0576
2.180000 57.916 -10.7759
2.200000 58.139 -10.6776
2.240000 58.570 -10.6523
2.270000 58.883 -10.7919
2.300000 59.188 -11.0468
2.330000 59.485 -11.3984
2.360000 59.774 -11.8281
2.400000 60.147 -12.4907
2.430000 60.419 -13.0307
2.470000 60.769 -13.7729
2.500000 61.024 -14.3221
2.540000 61.353 -15.0093
2.580000 61.670 -15.6182
2.620000 61.972 -16.2363
2.650000 62.189 -16.7186
2.690000 62.466 -17.3808
2.720000 62.665 -17.8882
2.760000 62.921 -18.5734
2.800000 63.166 -19.2623
2.850000 63.460 -20.1180
2.900000 63.742 -20.9552
2.950000 64.014 -21.7648
3.000000 64.270 -22.5754
3.040000 64.463 -23.2255
3.070000 64.601 -23.7112
3.110000 64.779 -24.3528
3.150000 64.949 -24.9834
3.200000 65.154 -25.7496
3.250000 65.351 -26.4834
3.300000 65.544 -27.1763
3.350000 65.728 -27.8389
3.400000 65.901 -28.4795
3.450000 66.064 -29.0937
3.500000 66.221 -29.6771
3.550000 66.373 -30.2254
3.600000 66.522 -30.7340
3.650000 66.671 -31.1986
3.700000 66.818 -31.6120
3.750000 66.960 -31.9704
3.820000 67.152 -32.3980
3.870000 67.286 -32.6638
3.950000 67.501 -33.0482
4.000000 67.637 -33.2782
4.060000 67.803 -33.5527
4.120000 67.971 -33.7972
4.180000 68.139 -34.0158
4.250000 68.336 -34.2514
4.310000 68.507 -34.4479
4.370000 68.681 -34.6500
4.440000 68.888 -34.8923
4.500000 69.069 -35.0819
4.550000 69.222 -35.2358
4.620000 69.438 -35.4617
4.680000 69.624 -35.6808
4.750000 69.840 -35.9864
4.820000 70.056 -36.3519
4.870000 70.211 -36.6385
4.940000 70.429 -37.0734
5.000000 70.615 -37.4761
5.080000 70.858 -38.0539
5.150000 71.065 -38.5965
5.220000 71.268 -39.1808
5.300000 71.496 -39.8954
5.380000 71.718 -40.6502
5.450000 71.906 -41.3356
5.520000 72.086 -42.0396
5.600000 72.283 -42.8851
5.700000 72.519 -43.9884
5.800000 72.742 -45.1114
5.900000 72.952 -46.2259
6.000000 73.147 -47.3566
6.080000 73.294 -48.2637
6.150000 73.416 -49.0474
6.220000 73.534 -49.8120
6.300000 73.662 -50.6649
6.400000 73.812 -51.7120
6.500000 73.952 -52.7260
6.600000 74.088 -53.6941
6.700000 74.217 -54.6154
6.800000 74.340 -55.4946
6.900000 74.460 -56.3315
7.000000 74.579 -57.1245
7.100000 74.697 -57.8676
7.200000 74.813 -58.5708
7.300000 74.930 -59.2472
7.400000 75.050 -59.9003
7.500000 75.170 -60.5214
7.620000 75.316 -61.2427
7.750000 75.478 -62.0159
7.880000 75.643 -62.7704
8.000000 75.797 -63.4608
8.120000 75.950 -64.1588
8.250000 76.117 -64.9193
8.380000 76.283 -65.6796
8.500000 76.433 -66.3812
8.620000 76.581 -67.0851
8.750000 76.739 -67.8369
8.850000 76.858 -68.4007
9.000000 77.033 -69.2306
9.120000 77.170 -69.8720
9.250000 77.319 -70.5354
9.380000 77.466 -71.1700
9.500000 77.603 -71.7372
9.620000 77.742 -72.2850
9.750000 77.895 -72.8563
9.880000 78.050 -73.4310
10.000000 78.196 -73.9691
10.150000 78.382 -74.6502
10.300000 78.568 -75.3792
10.440000 78.741 -76.1036
10.600000 78.934 -76.9842
10.750000 79.105 -77.8752
10.900000 79.267 -78.8164
11.060000 79.420 -79.8392
11.200000 79.538 -80.7629
11.380000 79.668 -81.9025
11.500000 79.739 -82.6274
11.720000 79.843 -83.8231
11.800000 79.874 -84.1892
12.060000 79.957 -85.1476
12.200000 80.002 -85.4797
12.410000 80.076 -85.7662
12.500000 80.117 -85.8384
12.650000 80.197 -85.8636
12.800000 80.292 -85.8621
13.150000 80.588 -85.9520
13.200000 80.635 -86.0023
13.400000 80.836 -86.3083
13.600000 81.034 -86.8040
13.800000 81.221 -87.5178
14.000000 81.381 -88.3458
14.300000 81.564 -89.7170
14.500000 81.643 -90.5670
14.750000 81.714 -91.4195
15.000000 81.764 -91.9792
15.250000 81.826 -92.2168
15.500000 81.921 -92.2647
15.750000 82.056 -92.2258
16.000000 82.235 -92.2909
16.250000 82.433 -92.5787
16.500000 82.638 -93.1180
16.750000 82.825 -93.9101
17.000000 82.982 -94.8317
17.250000 83.106 -95.7984
17.500000 83.199 -96.7013
17.750000 83.275 -97.4552
18.000000 83.344 -98.0583
18.250000 83.419 -98.5124
18.500000 83.509 -98.8965
18.750000 83.614 -99.2667
19.000000 83.730 -99.6751
19.250000 83.850 -100.1605
19.500000 83.965 -100.7040
19.750000 84.073 -101.2895
20.000000 84.171 -101.8660
20.299999 84.281 -102.5096
20.600000 84.391 -103.0885
20.900000 84.507 -103.6246
21.200001 84.632 -104.1753
21.400000 84.718 -104.5829
21.799999 84.884 -105.5067
22.000000 84.959 -106.0104
22.400000 85.084 -107.0271
22.700001 85.159 -107.7166
23.000000 85.228 -108.2878
23.299999 85.300 -108.7490
23.600000 85.385 -109.1480
24.000000 85.517 -109.6871
24.299999 85.623 -110.1653
24.700001 85.759 -110.9235
25.000000 85.847 -111.5448
25.400000 85.944 -112.3599
25.799999 86.023 -113.0787
26.200001 86.095 -113.6754
26.500000 86.151 -114.0586
26.900000 86.229 -114.5163
27.200001 86.291 -114.8391
27.600000 86.378 -115.2575
28.000000 86.468 -115.6742
28.500000 86.587 -116.2213
29.000000 86.710 -116.8499
29.500000 86.828 -117.6022
30.000000 86.924 -118.4503
30.400000 86.981 -119.1126
30.700001 87.015 -119.5447
31.100000 87.062 -120.0001
31.500000 87.129 -120.3679
32.000000 87.249 -120.9212
32.500000 87.377 -121.8129
33.000000 87.456 -122.9726
33.500000 87.464 -123.9910
34.000000 87.446 -124.4753
34.500000 87.484 -124.4985
35.000000 87.608 -124.5295
35.500000 87.771 -124.9867
36.000000 87.902 -125.8352
36.500000 87.977 -126.7332
37.000000 88.022 -127.3906
37.500000 88.075 -127.7956
38.200001 88.194 -128.2603
38.700001 88.296 -128.7018
39.500000 88.445 -129.5952
40.000000 88.524 -130.1605
40.599998 88.617 -130.8008
41.200001 88.711 -131.4833
41.799999 88.790 -132.2568
42.500000 88.846 -133.1357
43.099998 88.874 -133.7390
43.700001 88.899 -134.2299
44.400002 88.927 -134.7144
45.000000 88.954 -135.0605
45.500000 88.981 -135.3333
46.200001 89.027 -135.6965
46.799999 89.093 -135.9599
47.500000 89.238 -136.5881
48.200001 89.370 -138.2025
48.700001 89.356 -139.7363
49.400002 89.166 -141.1212
50.000000 89.011 -140.9566
50.799999 89.063 -140.1105
51.500000 89.241 -140.2817
52.200001 89.359 -141.0325
53.000000 89.444 -141.6537
53.799999 89.559 -142.1530
54.500000 89.659 -142.8186
55.200001 89.714 -143.6046
56.000000 89.723 -144.3007
57.000000 89.742 -144.6638
58.000000 89.819 -145.1396
59.000000 89.872 -145.9012
60.000000 89.913 -146.5767
60.799999 89.949 -147.1662
61.500000 89.970 -147.6513
62.200001 89.998 -148.0641
63.000000 90.042 -148.5979
64.000000 90.078 -149.3633
65.000000 90.100 -150.0170
66.000000 90.124 -150.6563
67.000000 90.138 -151.1839
68.000000 90.179 -151.5862
69.000000 90.235 -152.2086
70.000000 90.248 -152.9168
71.000000 90.239 -153.3995
72.000000 90.245 -153.8242
73.000000 90.251 -154.3578
74.000000 90.245 -154.9351
75.000000 90.242 -155.4870
76.199997 90.255 -156.1328
77.500000 90.288 -156.8086
78.800003 90.325 -157.4752
80.000000 90.333 -158.0174
81.199997 90.295 -158.3819
82.500000 90.255 -158.2430
83.800003 90.306 -158.2490
85.000000 90.374 -158.7487
86.199997 90.424 -159.5975
87.500000 90.424 -160.3585
88.500000 90.432 -160.6127
90.000000 90.471 -160.9085
91.199997 90.484 -161.3144
92.500000 90.447 -161.8662
93.800003 90.402 -162.4099
95.000000 90.396 -163.0852
96.199997 90.415 -163.9782
97.500000 90.457 -165.0045
98.800003 90.481 -165.9951
100.000000 90.459 -166.4030
101.500000 90.468 -166.2391
103.000000 90.501 -166.2436
104.400002 90.503 -166.5595
106.000000 90.469 -167.1945
107.500000 90.435 -167.8404
109.000000 90.422 -168.4983
110.599998 90.419 -169.0768
112.000000 90.430 -169.4586
113.800003 90.435 -169.9326
115.000000 90.424 -170.1828
117.199997 90.400 -170.6104
118.000000 90.390 -170.7812
120.599998 90.365 -171.4670
122.000000 90.344 -171.9211
124.099998 90.310 -172.5258
125.000000 90.298 -172.7449
126.500000 90.282 -173.0737
128.000000 90.259 -173.3569
131.500000 90.186 -173.8077
132.000000 90.180 -173.8901
134.000000 90.161 -174.4409
136.000000 90.132 -175.0956
138.000000 90.106 -175.6033
140.000000 90.085 -175.9682
143.000000 90.047 -176.4734
145.000000 90.021 -176.7887
147.500000 90.004 -177.0244
150.000000 90.004 -177.3433
152.500000 89.936 -177.9633
155.000000 89.842 -178.4676
157.500000 89.792 -178.9532
160.000000 89.758 -179.4144
162.500000 89.710 -179.7757
165.000000 89.654 179.9209
167.500000 89.599 179.5562
170.000000 89.542 179.1931
172.500000 89.487 178.8569
175.000000 89.431 178.5142
177.500000 89.370 178.1466
180.000000 89.305 177.7848
182.500000 89.240 177.4724
185.000000 89.177 177.2088
187.500000 89.114 176.9335
190.000000 89.046 176.6475
192.500000 88.966 176.4112
195.000000 88.871 176.2422
197.500000 88.773 176.0993
200.000000 88.687 175.8688
203.000000 88.586 175.4886
206.000000 88.463 175.1950
209.000000 88.316 175.0209
212.000000 88.150 174.9650
214.000000 88.031 174.9975
218.000000 87.765 175.2150
220.000000 87.618 175.4944
224.000000 87.301 176.6627
227.000000 87.061 178.0756
230.000000 86.880 -179.9961
233.000000 86.854 -177.3229
236.000000 87.029 -174.3906
240.000000 87.450 -171.6752
243.000000 87.815 -171.0403
247.000000 88.254 -171.6025
250.000000 88.482 -172.5943
254.000000 88.625 -174.1529
258.000000 88.673 -175.6193
262.000000 88.676 -176.8771
265.000000 88.653 -177.6575
269.000000 88.603 -178.4883
272.000000 88.558 -178.9892
276.000000 88.488 -179.5671
280.000000 88.410 179.9463
285.000000 88.310 179.5010
290.000000 88.211 179.2250
295.000000 88.115 179.0117
300.000000 88.023 178.8392
304.000000 87.954 178.7002
307.000000 87.902 178.6130
311.000000 87.833 178.5396
315.000000 87.763 178.4963
320.000000 87.673 178.4650
325.000000 87.582 178.5056
330.000000 87.496 178.5540
335.000000 87.410 178.6030
340.000000 87.325 178.6863
345.000000 87.250 178.7881
350.000000 87.178 178.9112
355.000000 87.096 179.0663
360.000000 87.015 179.2188
365.000000 86.942 179.4013
370.000000 86.869 179.5967
375.000000 86.793 179.8029
382.000000 86.693 -179.8728
387.000000 86.623 -179.6392
395.000000 86.509 -179.2502
400.000000 86.440 -178.9795
406.000000 86.361 -178.6614
412.000000 86.281 -178.3210
418.000000 86.196 -177.9387
425.000000 86.107 -177.4838
431.000000 86.037 -177.1270
437.000000 85.960 -176.7678
444.000000 85.881 -176.3384
450.000000 85.818 -175.9614
455.000000 85.750 -175.5790
462.000000 85.652 -175.0238
468.000000 85.579 -174.5757
475.000000 85.499 -174.0411
482.000000 85.423 -173.4904
487.000000 85.369 -173.0962
494.000000 85.294 -172.5295
500.000000 85.230 -172.0269
508.000000 85.145 -171.3451
515.000000 85.074 -170.7340
522.000000 85.002 -170.1179
530.000000 84.924 -169.3902
538.000000 84.850 -168.6373
545.000000 84.788 -167.9556
552.000000 84.726 -167.2733
560.000000 84.653 -166.5310
570.000000 84.565 -165.5735
580.000000 84.482 -164.5816
590.000000 84.404 -163.5720
600.000000 84.327 -162.5166
608.000000 84.266 -161.6625
615.000000 84.216 -160.9137
622.000000 84.168 -160.1568
630.000000 84.116 -159.2831
640.000000 84.052 -158.1986
650.000000 83.987 -157.1101
660.000000 83.930 -155.9102
670.000000 83.879 -154.7060
680.000000 83.833 -153.5307
690.000000 83.787 -152.3145
700.000000 83.745 -151.0757
710.000000 83.709 -149.8443
720.000000 83.679 -148.5990
730.000000 83.652 -147.3306
740.000000 83.631 -146.0825
750.000000 83.618 -144.8362
762.000000 83.602 -143.2655
775.000000 83.590 -141.5440
788.000000 83.591 -139.8077
800.000000 83.602 -138.2104
812.000000 83.623 -136.6155
825.000000 83.658 -134.8953
838.000000 83.698 -133.2179
850.000000 83.743 -131.6686
862.000000 83.802 -130.0731
875.000000 83.878 -128.3720
885.000000 83.941 -127.0786
900.000000 84.045 -125.1723
912.000000 84.140 -123.7024
925.000000 84.250 -122.1470
938.000000 84.368 -120.6107
950.000000 84.485 -119.2229
962.000000 84.616 -117.8621
975.000000 84.775 -116.3906
988.000000 84.962 -114.9571
1000.000000 85.172 -113.8241
1015.000000 85.437 -113.0407
1030.000000 85.590 -112.6034
1044.000000 85.683 -111.6603
1060.000000 85.886 -110.1776
1075.000000 86.187 -109.3133
1090.000000 86.437 -109.4910
1106.000000 86.527 -109.8003
1120.000000 86.560 -109.4640
1138.000000 86.644 -108.6299
1150.000000 86.722 -108.0816
1172.000000 86.882 -107.2168
1180.000000 86.939 -106.9333
1206.000000 87.116 -106.0840
1220.000000 87.204 -105.6656
1241.000000 87.324 -105.0668
1250.000000 87.372 -104.8145
1265.000000 87.449 -104.3970
1280.000000 87.520 -103.9811
1315.000000 87.667 -102.9826
1320.000000 87.686 -102.8380
1340.000000 87.758 -102.2513
1360.000000 87.823 -101.6359
1380.000000 87.887 -100.9924
1400.000000 87.946 -100.3270
1430.000000 88.028 -99.3000
1450.000000 88.079 -98.5970
1475.000000 88.141 -97.6542
1500.000000 88.202 -96.6715
1525.000000 88.263 -95.6837
1550.000000 88.323 -94.6569
1575.000000 88.382 -93.5957
1600.000000 88.442 -92.5056
1625.000000 88.505 -91.3855
1650.000000 88.571 -90.2487
1675.000000 88.641 -89.1012
1700.000000 88.714 -87.9549
1725.000000 88.790 -86.8077
1750.000000 88.866 -85.6544
1775.000000 88.943 -84.5094
1800.000000 89.021 -83.3523
1825.000000 89.101 -82.1807
1850.000000 89.183 -80.9971
1875.000000 89.266 -79.7897
1900.000000 89.350 -78.5670
1925.000000 89.436 -77.3202
1950.000000 89.526 -76.0432
1975.000000 89.620 -74.7281
2000.000000 89.723 -73.3693
2030.000000 89.864 -71.6868
2060.000000 90.030 -69.9720
2090.000000 90.228 -68.2941
2120.000000 90.457 -66.7703
2140.000000 90.621 -65.8851
2180.000000 90.948 -64.4714
2200.000000 91.103 -63.9143
2240.000000 91.380 -62.9664
2270.000000 91.562 -62.3049
2300.000000 91.728 -61.6201
2330.000000 91.885 -60.8916
2360.000000 92.040 -60.1207
2400.000000 92.249 -59.0434
2430.000000 92.410 -58.2068
2470.000000 92.637 -57.0778
2500.000000 92.817 -56.2436
2540.000000 93.078 -55.1841
2580.000000 93.363 -54.2702
2620.000000 93.663 -53.6244
2650.000000 93.885 -53.3507
2690.000000 94.161 -53.2257
2720.000000 94.348 -53.2537
2760.000000 94.570 -53.3747
2800.000000 94.764 -53.5382
2850.000000 94.978 -53.7657
2900.000000 95.166 -54.0114
2950.000000 95.333 -54.2753
3000.000000 95.482 -54.5716
3040.000000 95.586 -54.8534
3070.000000 95.654 -55.0909
3110.000000 95.729 -55.4379
3150.000000 95.784 -55.8042
3200.000000 95.823 -56.2443
3250.000000 95.834 -56.6217
3300.000000 95.819 -56.9131
3350.000000 95.780 -57.1116
3400.000000 95.723 -57.2089
3450.000000 95.648 -57.1895
3500.000000 95.559 -57.0436
3550.000000 95.458 -56.7614
3600.000000 95.349 -56.3399
3650.000000 95.235 -55.7909
3700.000000 95.119 -55.1188
3750.000000 95.004 -54.3282
3820.000000 94.845 -53.0405
3870.000000 94.735 -51.9955
3950.000000 94.573 -50.1319
4000.000000 94.483 -48.8646
4060.000000 94.387 -47.2591
4120.000000 94.306 -45.5897
4180.000000 94.238 -43.8856
4250.000000 94.176 -41.8840
4310.000000 94.133 -40.1670
4370.000000 94.097 -38.4358
4440.000000 94.067 -36.4022
4500.000000 94.051 -34.6549
4550.000000 94.043 -33.1995
4620.000000 94.043 -31.1625
4680.000000 94.054 -29.4297
4750.000000 94.080 -27.4458
4820.000000 94.116 -25.5082
4870.000000 94.148 -24.1582
4940.000000 94.201 -22.3285
5000.000000 94.251 -20.8214
5080.000000 94.327 -18.9029
5150.000000 94.399 -17.3175
5220.000000 94.474 -15.8263
5300.000000 94.561 -14.2485
5380.000000 94.645 -12.8141
5450.000000 94.714 -11.6687
5520.000000 94.777 -10.6228
5600.000000 94.837 -9.5492
5700.000000 94.891 -8.3610
5800.000000 94.914 -7.3125
5900.000000 94.903 -6.3633
6000.000000 94.852 -5.4321
6080.000000 94.784 -4.6476
6150.000000 94.707 -3.8919
6220.000000 94.617 -3.0396
6300.000000 94.506 -1.9347
6400.000000 94.365 -0.3588
6500.000000 94.234 1.4100
6600.000000 94.123 3.3266
6700.000000 94.040 5.3278
6800.000000 93.985 7.3574
6900.000000 93.962 9.3719
7000.000000 93.972 11.3369
7100.000000 94.020 13.2006
7200.000000 94.106 14.8975
7300.000000 94.233 16.3527
7400.000000 94.400 17.4949
7500.000000 94.605 18.2388
7620.000000 94.897 18.4183
7750.000000 95.243 17.4531
7880.000000 95.568 14.9102
8000.000000 95.753 10.9617
8120.000000 95.726 5.6522
8250.000000 95.364 -0.9382
8380.000000 94.620 -7.2854
8500.000000 93.637 -12.0068
8620.000000 92.459 -15.1590
8750.000000 91.072 -16.7518
8850.000000 89.986 -16.8340
9000.000000 88.395 -15.4540
9120.000000 87.182 -13.3241
9250.000000 85.944 -10.2453
9380.000000 84.785 -6.5673
9500.000000 83.785 -2.7598
9620.000000 82.850 1.3628
9750.000000 81.907 6.1070
9880.000000 81.028 11.0784
10000.000000 80.272 15.8114
10150.000000 79.396 21.8811
10300.000000 78.588 28.0845
10440.000000 77.888 33.9819
10600.000000 77.147 40.8622
10750.000000 76.504 47.5034
10900.000000 75.914 54.4219
11060.000000 75.381 62.2412
11200.000000 75.074 69.2432
11380.000000 74.907 77.2542
11500.000000 74.815 81.6306
11720.000000 74.499 88.9726
11800.000000 74.356 91.7320
12060.000000 73.934 101.2414
12200.000000 73.774 106.5062
12410.000000 73.623 114.2970
12500.000000 73.588 117.5437
12650.000000 73.569 122.8236
12800.000000 73.594 127.9345
13150.000000 73.829 139.1964
13200.000000 73.885 140.7113
13400.000000 74.176 146.4916
13600.000000 74.591 151.7997
13800.000000 75.155 156.4992
14000.000000 75.882 160.3309
14300.000000 77.340 164.1769
14500.000000 78.731 164.7084
14750.000000 81.045 160.7701
15000.000000 83.549 146.6277
15250.000000 84.886 117.6153
15500.000000 83.912 83.2461
15750.000000 80.986 59.3111
16000.000000 77.456 46.4591
16250.000000 74.316 38.6475
16500.000000 71.780 32.1843
16750.000000 69.745 25.5004
17000.000000 68.106 17.8563
17250.000000 66.796 8.9953
17500.000000 65.777 -1.3764
17750.000000 65.024 -13.5788
18000.000000 64.527 -27.6477
18250.000000 64.273 -43.6364
18500.000000 64.226 -62.0390
18750.000000 64.317 -83.2567
19000.000000 64.460 -107.6351
19250.000000 64.520 -135.6349
19500.000000 64.360 -167.0016
19750.000000 63.943 161.9875
