* Measurement data measured by REW V5.20.9
* Source: Input device not selected, no input selected, L, volume: no control. Timing signal peak level -31.9 dBFS, measurement signal peak level -27.3 dBFS
* Format: 256k Log Swept Sine, 1 sweep at -12.0 dBFS using an acoustic timing reference
* Dated: 20/05/2024 9:07:33 PM
* REW Settings:
*  C-weighting compensation: Off
*  Target level: 75.0 dB
* Note: ; Delay 0.0291 ms (10.0 mm, 0.39 in) using estimated IR delay relative to Acoustic reference on  R with no timing offset
* Measurement: Explorer R
* Smoothing: 1/24 octave
* Frequency Step: 1/48 octave
* Start Frequency: 1.000 Hz
*
* Freq(Hz) SPL(dB) Phase(degrees)
1.000000 45.037 105.0316
1.015000 45.289 103.6833
1.030000 45.539 102.3717
1.044000 45.769 101.1848
1.060000 46.030 99.8776
1.075000 46.270 98.7045
1.090000 46.507 97.5871
1.106000 46.755 96.4601
1.120000 46.971 95.5203
1.138000 47.247 94.3690
1.150000 47.431 93.6348
1.172000 47.767 92.3519
1.180000 47.889 91.9042
1.206000 48.282 90.5111
1.220000 48.493 89.7962
1.241000 48.807 88.7633
1.250000 48.942 88.3333
1.265000 49.164 87.6313
1.280000 49.386 86.9449
1.315000 49.898 85.3869
1.320000 49.971 85.1677
1.340000 50.260 84.2948
1.360000 50.547 83.4227
1.380000 50.831 82.5443
1.400000 51.112 81.6525
1.430000 51.529 80.2739
1.450000 51.804 79.3171
1.475000 52.142 78.0702
1.500000 52.477 76.7953
1.525000 52.807 75.5043
1.550000 53.134 74.2019
1.575000 53.457 72.8926
1.600000 53.776 71.5809
1.625000 54.091 70.2714
1.650000 54.403 68.9687
1.675000 54.710 67.6772
1.700000 55.014 66.4016
1.725000 55.315 65.1464
1.750000 55.611 63.9161
1.775000 55.904 62.7153
1.800000 56.194 61.5486
1.825000 56.480 60.4204
1.850000 56.762 59.3332
1.875000 57.040 58.2823
1.900000 57.314 57.2641
1.925000 57.584 56.2752
1.950000 57.850 55.3122
1.975000 58.113 54.3716
2.000000 58.372 53.4501
2.030000 58.678 52.3645
2.060000 58.980 51.2956
2.090000 59.277 50.2373
2.120000 59.570 49.1837
2.140000 59.763 48.4811
2.180000 60.145 47.0673
2.200000 60.333 46.3527
2.240000 60.703 44.9249
2.270000 60.976 43.8619
2.300000 61.243 42.8059
2.330000 61.506 41.7573
2.360000 61.765 40.7166
2.400000 62.104 39.3417
2.430000 62.354 38.3206
2.470000 62.681 36.9732
2.500000 62.923 35.9736
2.540000 63.241 34.6564
2.580000 63.554 33.3571
2.620000 63.860 32.0737
2.650000 64.085 31.1214
2.690000 64.379 29.8655
2.720000 64.596 28.9343
2.760000 64.880 27.7073
2.800000 65.158 26.4973
2.850000 65.499 25.0095
2.900000 65.834 23.5497
2.950000 66.162 22.1200
3.000000 66.481 20.7282
3.040000 66.731 19.6396
3.070000 66.915 18.8356
3.110000 67.156 17.7773
3.150000 67.393 16.7317
3.200000 67.683 15.4375
3.250000 67.968 14.1516
3.300000 68.247 12.8673
3.350000 68.520 11.5835
3.400000 68.787 10.3052
3.450000 69.047 9.0368
3.500000 69.302 7.7830
3.550000 69.551 6.5480
3.600000 69.796 5.3365
3.650000 70.036 4.1528
3.700000 70.272 3.0012
3.750000 70.503 1.8809
3.820000 70.817 0.3551
3.870000 71.036 -0.7115
3.950000 71.378 -2.3919
4.000000 71.587 -3.4341
4.060000 71.834 -4.6835
4.120000 72.074 -5.9255
4.180000 72.309 -7.1556
4.250000 72.576 -8.5701
4.310000 72.800 -9.7606
4.370000 73.019 -10.9267
4.440000 73.271 -12.2515
4.500000 73.481 -13.3571
4.550000 73.652 -14.2606
4.620000 73.887 -15.5032
4.680000 74.085 -16.5523
4.750000 74.311 -17.7637
4.820000 74.532 -18.9637
4.870000 74.687 -19.8105
4.940000 74.899 -20.9808
5.000000 75.077 -21.9691
5.080000 75.311 -23.2644
5.150000 75.511 -24.3757
5.220000 75.706 -25.4649
5.300000 75.925 -26.6846
5.380000 76.138 -27.8810
5.450000 76.322 -28.9114
5.520000 76.502 -29.9285
5.600000 76.703 -31.0711
5.700000 76.949 -32.4706
5.800000 77.188 -33.8418
5.900000 77.422 -35.1878
6.000000 77.650 -36.5061
6.080000 77.828 -37.5416
6.150000 77.981 -38.4349
6.220000 78.132 -39.3172
6.300000 78.302 -40.3109
6.400000 78.509 -41.5299
6.500000 78.712 -42.7277
6.600000 78.911 -43.9091
6.700000 79.105 -45.0740
6.800000 79.295 -46.2210
6.900000 79.480 -47.3512
7.000000 79.662 -48.4653
7.100000 79.840 -49.5620
7.200000 80.013 -50.6428
7.300000 80.183 -51.7100
7.400000 80.349 -52.7649
7.500000 80.511 -53.8063
7.620000 80.701 -55.0380
7.750000 80.901 -56.3498
7.880000 81.094 -57.6380
8.000000 81.268 -58.8068
8.120000 81.437 -59.9567
8.250000 81.615 -61.1808
8.380000 81.788 -62.3826
8.500000 81.943 -63.4723
8.620000 82.095 -64.5428
8.750000 82.255 -65.6823
8.850000 82.375 -66.5452
9.000000 82.551 -67.8162
9.120000 82.688 -68.8152
9.250000 82.834 -69.8809
9.380000 82.976 -70.9287
9.500000 83.104 -71.8821
9.620000 83.230 -72.8230
9.750000 83.363 -73.8276
9.880000 83.493 -74.8192
10.000000 83.611 -75.7239
10.150000 83.754 -76.8397
10.300000 83.894 -77.9406
10.440000 84.021 -78.9545
10.600000 84.162 -80.0978
10.750000 84.291 -81.1553
10.900000 84.416 -82.1985
11.060000 84.546 -83.2957
11.200000 84.656 -84.2423
11.380000 84.794 -85.4410
11.500000 84.883 -86.2285
11.720000 85.042 -87.6484
11.800000 85.098 -88.1570
12.060000 85.275 -89.7818
12.200000 85.368 -90.6397
12.410000 85.503 -91.9048
12.500000 85.560 -92.4399
12.650000 85.653 -93.3218
12.800000 85.744 -94.1929
13.150000 85.950 -96.1875
13.200000 85.978 -96.4687
13.400000 86.091 -97.5836
13.600000 86.200 -98.6844
13.800000 86.305 -99.7717
14.000000 86.408 -100.8445
14.300000 86.555 -102.4263
14.500000 86.649 -103.4610
14.750000 86.763 -104.7314
15.000000 86.872 -105.9760
15.250000 86.978 -107.1957
15.500000 87.080 -108.3924
15.750000 87.179 -109.5675
16.000000 87.274 -110.7229
16.250000 87.366 -111.8594
16.500000 87.455 -112.9769
16.750000 87.541 -114.0752
17.000000 87.624 -115.1540
17.250000 87.704 -116.2138
17.500000 87.782 -117.2550
17.750000 87.857 -118.2797
18.000000 87.930 -119.2890
18.250000 88.000 -120.2843
18.500000 88.068 -121.2661
18.750000 88.133 -122.2340
19.000000 88.196 -123.1876
19.250000 88.256 -124.1257
19.500000 88.314 -125.0485
19.750000 88.370 -125.9561
20.000000 88.424 -126.8495
20.299999 88.486 -127.9047
20.600000 88.546 -128.9428
20.900000 88.603 -129.9646
21.200001 88.658 -130.9699
21.400000 88.693 -131.6306
21.799999 88.761 -132.9295
22.000000 88.793 -133.5683
22.400000 88.855 -134.8272
22.700001 88.900 -135.7568
23.000000 88.942 -136.6742
23.299999 88.982 -137.5780
23.600000 89.020 -138.4662
24.000000 89.068 -139.6251
24.299999 89.102 -140.4767
24.700001 89.147 -141.5942
25.000000 89.179 -142.4226
25.400000 89.219 -143.5153
25.799999 89.256 -144.5891
26.200001 89.289 -145.6354
26.500000 89.312 -146.4001
26.900000 89.342 -147.3970
27.200001 89.365 -148.1337
27.600000 89.394 -149.1085
28.000000 89.420 -150.0749
28.500000 89.449 -151.2597
29.000000 89.473 -152.4070
29.500000 89.497 -153.5218
30.000000 89.519 -154.6177
30.400000 89.535 -155.4812
30.700001 89.547 -156.1173
31.100000 89.562 -156.9495
31.500000 89.577 -157.7726
32.000000 89.598 -158.8136
32.500000 89.614 -159.8802
33.000000 89.619 -160.9387
33.500000 89.616 -161.9348
34.000000 89.612 -162.8468
34.500000 89.614 -163.7103
35.000000 89.621 -164.5750
35.500000 89.628 -165.4575
36.000000 89.631 -166.3350
36.500000 89.630 -167.1840
37.000000 89.628 -168.0062
37.500000 89.627 -168.8182
38.200001 89.623 -169.9484
38.700001 89.617 -170.7406
39.500000 89.605 -171.9732
40.000000 89.596 -172.7320
40.599998 89.584 -173.6350
41.200001 89.570 -174.5191
41.799999 89.554 -175.3787
42.500000 89.538 -176.3620
43.099998 89.523 -177.1945
43.700001 89.507 -178.0073
44.400002 89.488 -178.9279
45.000000 89.472 -179.7057
45.500000 89.457 179.6583
46.200001 89.434 178.8080
46.799999 89.415 178.1042
47.500000 89.390 177.2766
48.200001 89.355 176.4983
48.700001 89.331 176.0181
49.400002 89.315 175.3831
50.000000 89.314 174.7343
50.799999 89.295 173.6993
51.500000 89.254 172.8241
52.200001 89.209 172.0579
53.000000 89.166 171.2234
53.799999 89.126 170.3962
54.500000 89.092 169.6985
55.200001 89.061 169.0110
56.000000 89.026 168.2352
57.000000 88.981 167.3071
58.000000 88.938 166.4066
59.000000 88.891 165.5239
60.000000 88.842 164.6750
60.799999 88.803 164.0112
61.500000 88.768 163.4308
62.200001 88.731 162.8575
63.000000 88.690 162.2210
64.000000 88.642 161.4373
65.000000 88.593 160.6559
66.000000 88.544 159.8956
67.000000 88.494 159.1625
68.000000 88.444 158.4510
69.000000 88.395 157.7512
70.000000 88.344 157.0645
71.000000 88.292 156.3971
72.000000 88.241 155.7432
73.000000 88.190 155.0985
74.000000 88.140 154.4677
75.000000 88.090 153.8515
76.199997 88.030 153.1296
77.500000 87.965 152.3686
78.800003 87.899 151.6235
80.000000 87.838 150.9543
81.199997 87.778 150.3002
82.500000 87.713 149.6021
83.800003 87.649 148.9200
85.000000 87.591 148.3047
86.199997 87.534 147.7016
87.500000 87.471 147.0661
88.500000 87.423 146.5889
90.000000 87.351 145.8883
91.199997 87.293 145.3414
92.500000 87.231 144.7594
93.800003 87.170 144.1908
95.000000 87.113 143.6767
96.199997 87.058 143.1724
97.500000 86.999 142.6321
98.800003 86.941 142.0947
100.000000 86.886 141.6107
101.500000 86.818 141.0340
103.000000 86.752 140.4691
104.400002 86.690 139.9484
106.000000 86.621 139.3658
107.500000 86.556 138.8325
109.000000 86.492 138.3122
110.599998 86.425 137.7660
112.000000 86.367 137.2930
113.800003 86.292 136.7001
115.000000 86.243 136.3167
117.199997 86.155 135.6252
118.000000 86.123 135.3783
120.599998 86.021 134.5872
122.000000 85.967 134.1683
124.099998 85.888 133.5581
125.000000 85.854 133.3033
126.500000 85.797 132.8869
128.000000 85.742 132.4792
131.500000 85.614 131.5530
132.000000 85.596 131.4240
134.000000 85.526 130.9164
136.000000 85.456 130.4140
138.000000 85.387 129.9086
140.000000 85.320 129.4102
143.000000 85.224 128.7123
145.000000 85.156 128.2611
147.500000 85.060 127.6630
150.000000 84.965 127.1197
152.500000 84.904 126.6006
155.000000 84.847 126.0502
157.500000 84.778 125.5497
160.000000 84.705 125.0461
162.500000 84.634 124.5360
165.000000 84.568 124.0538
167.500000 84.501 123.5838
170.000000 84.433 123.1100
172.500000 84.368 122.6400
175.000000 84.305 122.1880
177.500000 84.243 121.7471
180.000000 84.183 121.3083
182.500000 84.124 120.8752
185.000000 84.066 120.4482
187.500000 84.010 120.0267
190.000000 83.954 119.6098
192.500000 83.899 119.2013
195.000000 83.843 118.8013
197.500000 83.787 118.4078
200.000000 83.733 118.0222
203.000000 83.676 117.5604
206.000000 83.622 117.0995
209.000000 83.566 116.6487
212.000000 83.510 116.2036
214.000000 83.474 115.9071
218.000000 83.403 115.3229
220.000000 83.369 115.0369
224.000000 83.302 114.4675
227.000000 83.253 114.0433
230.000000 83.206 113.6257
233.000000 83.160 113.2157
236.000000 83.115 112.8128
240.000000 83.057 112.2815
243.000000 83.014 111.8951
247.000000 82.955 111.4214
250.000000 82.914 111.0619
254.000000 82.865 110.5087
258.000000 82.817 109.9613
262.000000 82.771 109.4504
265.000000 82.736 109.0777
269.000000 82.690 108.5842
272.000000 82.657 108.2115
276.000000 82.613 107.7178
280.000000 82.570 107.2418
285.000000 82.521 106.6538
290.000000 82.473 106.0610
295.000000 82.427 105.4702
300.000000 82.383 104.8713
304.000000 82.349 104.4050
307.000000 82.325 104.0623
311.000000 82.294 103.6100
315.000000 82.263 103.1577
320.000000 82.225 102.5911
325.000000 82.190 102.0247
330.000000 82.157 101.4670
335.000000 82.124 100.9257
340.000000 82.093 100.3820
345.000000 82.065 99.8319
350.000000 82.040 99.2819
355.000000 82.009 98.7485
360.000000 81.979 98.2227
365.000000 81.953 97.6999
370.000000 81.929 97.1769
375.000000 81.906 96.6545
382.000000 81.876 95.9247
387.000000 81.855 95.4087
395.000000 81.822 94.5977
400.000000 81.801 94.0950
406.000000 81.779 93.4965
412.000000 81.758 92.8997
418.000000 81.738 92.3009
425.000000 81.715 91.6170
431.000000 81.696 91.0401
437.000000 81.677 90.4556
444.000000 81.658 89.7572
450.000000 81.644 89.1642
455.000000 81.630 88.7179
462.000000 81.610 88.1080
468.000000 81.594 87.5651
475.000000 81.576 86.9343
482.000000 81.559 86.3142
487.000000 81.548 85.8712
494.000000 81.532 85.2517
500.000000 81.518 84.7334
508.000000 81.499 84.0584
515.000000 81.483 83.4750
522.000000 81.467 82.9071
530.000000 81.448 82.2716
538.000000 81.431 81.6403
545.000000 81.418 81.0964
552.000000 81.405 80.5740
560.000000 81.387 80.0006
570.000000 81.366 79.2972
580.000000 81.347 78.6182
590.000000 81.330 77.9608
600.000000 81.315 77.3233
608.000000 81.304 76.8312
615.000000 81.294 76.4136
622.000000 81.286 76.0090
630.000000 81.277 75.5638
640.000000 81.269 75.0363
650.000000 81.262 74.5324
660.000000 81.255 74.0097
670.000000 81.252 73.5129
680.000000 81.250 73.0476
690.000000 81.251 72.6047
700.000000 81.253 72.1835
710.000000 81.257 71.7816
720.000000 81.265 71.3981
730.000000 81.276 71.0297
740.000000 81.290 70.6796
750.000000 81.307 70.3480
762.000000 81.330 69.9431
775.000000 81.359 69.5202
788.000000 81.394 69.1206
800.000000 81.430 68.7650
812.000000 81.472 68.4236
825.000000 81.523 68.0581
838.000000 81.579 67.6933
850.000000 81.635 67.3584
862.000000 81.695 67.0280
875.000000 81.766 66.6589
885.000000 81.823 66.3666
900.000000 81.915 65.9159
912.000000 81.993 65.5393
925.000000 82.080 65.1161
938.000000 82.169 64.6708
950.000000 82.254 64.2430
962.000000 82.344 63.7936
975.000000 82.444 63.2767
988.000000 82.545 62.7281
1000.000000 82.638 62.1965
1015.000000 82.755 61.5063
1030.000000 82.872 60.7832
1044.000000 82.981 60.0757
1060.000000 83.104 59.2235
1075.000000 83.218 58.3908
1090.000000 83.329 57.5297
1106.000000 83.444 56.5851
1120.000000 83.542 55.7383
1138.000000 83.664 54.6240
1150.000000 83.743 53.8666
1172.000000 83.880 52.4606
1180.000000 83.929 51.9453
1206.000000 84.081 50.2518
1220.000000 84.158 49.3289
1241.000000 84.269 47.9416
1250.000000 84.316 47.3447
1265.000000 84.390 46.3462
1280.000000 84.461 45.3491
1315.000000 84.620 43.0382
1320.000000 84.642 42.7099
1340.000000 84.728 41.3998
1360.000000 84.812 40.0909
1380.000000 84.893 38.7859
1400.000000 84.972 37.4899
1430.000000 85.092 35.5523
1450.000000 85.171 34.2590
1475.000000 85.270 32.6338
1500.000000 85.370 30.9838
1525.000000 85.471 29.3062
1550.000000 85.570 27.5985
1575.000000 85.667 25.8632
1600.000000 85.762 24.0898
1625.000000 85.856 22.2815
1650.000000 85.948 20.4360
1675.000000 86.037 18.5453
1700.000000 86.122 16.6105
1725.000000 86.204 14.6322
1750.000000 86.281 12.6108
1775.000000 86.352 10.5453
1800.000000 86.417 8.4330
1825.000000 86.476 6.2782
1850.000000 86.528 4.0823
1875.000000 86.570 1.8501
1900.000000 86.605 -0.4144
1925.000000 86.631 -2.7079
1950.000000 86.646 -5.0242
1975.000000 86.653 -7.3577
2000.000000 86.649 -9.7006
2030.000000 86.632 -12.5131
2060.000000 86.600 -15.3174
2090.000000 86.556 -18.1018
2120.000000 86.499 -20.8574
2140.000000 86.455 -22.6752
2180.000000 86.354 -26.2511
2200.000000 86.298 -28.0050
2240.000000 86.175 -31.4354
2270.000000 86.077 -33.9387
2300.000000 85.975 -36.3762
2330.000000 85.871 -38.7461
2360.000000 85.767 -41.0513
2400.000000 85.630 -44.0253
2430.000000 85.531 -46.1824
2470.000000 85.406 -48.9666
2500.000000 85.319 -50.9904
2540.000000 85.214 -53.6170
2580.000000 85.124 -56.1710
2620.000000 85.049 -58.6572
2650.000000 85.005 -60.4869
2690.000000 84.964 -62.8899
2720.000000 84.945 -64.6716
2760.000000 84.937 -67.0378
2800.000000 84.950 -69.4083
2850.000000 84.995 -72.3976
2900.000000 85.070 -75.4490
2950.000000 85.173 -78.5906
3000.000000 85.300 -81.8508
3040.000000 85.416 -84.5659
3070.000000 85.509 -86.6746
3110.000000 85.636 -89.5931
3150.000000 85.764 -92.6386
3200.000000 85.917 -96.6237
3250.000000 86.050 -100.7936
3300.000000 86.152 -105.1172
3350.000000 86.212 -109.5360
3400.000000 86.222 -113.9691
3450.000000 86.179 -118.3177
3500.000000 86.083 -122.4857
3550.000000 85.942 -126.3754
3600.000000 85.764 -129.9101
3650.000000 85.562 -133.0500
3700.000000 85.346 -135.7808
3750.000000 85.129 -138.1033
3820.000000 84.839 -140.7061
3870.000000 84.653 -142.1423
3950.000000 84.408 -143.8057
4000.000000 84.296 -144.5067
4060.000000 84.210 -145.0698
4120.000000 84.183 -145.4059
4180.000000 84.220 -145.6087
4250.000000 84.343 -145.8276
4310.000000 84.512 -146.1266
4370.000000 84.730 -146.6302
4440.000000 85.025 -147.5825
4500.000000 85.294 -148.7694
4550.000000 85.516 -150.0276
4620.000000 85.802 -152.1747
4680.000000 86.009 -154.3165
4750.000000 86.193 -157.0538
4820.000000 86.306 -159.9172
4870.000000 86.343 -161.9661
4940.000000 86.337 -164.7451
5000.000000 86.281 -166.9796
5080.000000 86.147 -169.6653
5150.000000 85.983 -171.6850
5220.000000 85.786 -173.3526
5300.000000 85.536 -174.7952
5380.000000 85.278 -175.7305
5450.000000 85.059 -176.1490
5520.000000 84.859 -176.2405
5600.000000 84.665 -176.0311
5700.000000 84.482 -175.4401
5800.000000 84.366 -174.6420
5900.000000 84.315 -173.7941
6000.000000 84.315 -173.0184
6080.000000 84.343 -172.5035
6150.000000 84.380 -172.1452
6220.000000 84.425 -171.8777
6300.000000 84.482 -171.6785
6400.000000 84.553 -171.5795
6500.000000 84.616 -171.6310
6600.000000 84.666 -171.7969
6700.000000 84.700 -172.0301
6800.000000 84.717 -172.3004
6900.000000 84.717 -172.5787
7000.000000 84.704 -172.8334
7100.000000 84.683 -173.0642
7200.000000 84.655 -173.2952
7300.000000 84.621 -173.5413
7400.000000 84.578 -173.8031
7500.000000 84.527 -174.0822
7620.000000 84.453 -174.4437
7750.000000 84.355 -174.8673
7880.000000 84.235 -175.3138
8000.000000 84.101 -175.7306
8120.000000 83.941 -176.1269
8250.000000 83.738 -176.4930
8380.000000 83.504 -176.7413
8500.000000 83.263 -176.8267
8620.000000 83.002 -176.7298
8750.000000 82.705 -176.3851
8850.000000 82.474 -175.9467
9000.000000 82.131 -175.0400
9120.000000 81.868 -174.1280
9250.000000 81.600 -172.9741
9380.000000 81.356 -171.6841
9500.000000 81.152 -170.4111
9620.000000 80.969 -169.1050
9750.000000 80.792 -167.6861
9880.000000 80.633 -166.2557
10000.000000 80.502 -164.9019
10150.000000 80.369 -163.1497
10300.000000 80.282 -161.3950
10440.000000 80.246 -159.8583
10600.000000 80.258 -158.3346
10750.000000 80.314 -157.2213
10900.000000 80.406 -156.4992
11060.000000 80.529 -156.2628
11200.000000 80.639 -156.5549
11380.000000 80.754 -157.6146
11500.000000 80.799 -158.7047
11720.000000 80.786 -161.2693
11800.000000 80.748 -162.3090
12060.000000 80.515 -165.7493
12200.000000 80.347 -167.5394
12410.000000 80.076 -170.1727
12500.000000 79.962 -171.3378
12650.000000 79.774 -173.4252
12800.000000 79.588 -175.7816
13150.000000 79.080 177.3907
13200.000000 78.991 176.2597
13400.000000 78.576 171.3915
13600.000000 78.053 166.0800
13800.000000 77.402 160.4908
14000.000000 76.609 154.8076
14300.000000 75.139 146.6102
14500.000000 73.981 141.8038
14750.000000 72.386 137.1371
15000.000000 70.735 134.2075
15250.000000 69.175 132.6937
15500.000000 67.819 131.6454
15750.000000 66.639 130.0882
16000.000000 65.517 127.7928
16250.000000 64.388 125.1614
16500.000000 63.272 122.5833
16750.000000 62.230 119.9416
17000.000000 61.311 116.8845
17250.000000 60.524 113.0099
17500.000000 59.853 107.8337
17750.000000 59.250 100.7257
18000.000000 58.590 91.1400
18250.000000 57.623 79.7753
18500.000000 56.159 71.7904
18750.000000 55.723 73.3793
19000.000000 57.770 68.2451
19250.000000 58.833 39.3101
19500.000000 57.898 3.4174
19750.000000 55.845 -25.1345
