* Measurement data measured by REW V5.20.9
* Source: Headset (USB-C to 3.5mm Headphone Jack Adapter), MICROPHONE (Master Volume), L, volume: 0.260. Timing signal peak level -25.1 dBFS, measurement signal peak level -25.0 dBFS
* Format: 256k Log Swept Sine, 1 sweep at -12.0 dBFS using an acoustic timing reference
* Dated: 25/12/2023 10:14:15 AM
* REW Settings:
*  C-weighting compensation: Off
*  Target level: 75.0 dB
* Note: ; Delay -0.0155 ms (-5.3 mm, -0.21 in) using estimated IR delay relative to Acoustic reference on SPEAKER R with no timing offset
* Measurement: F1 Pro R
* Smoothing: 1/24 octave
* Frequency Step: 1/48 octave
* Start Frequency: 1.000 Hz
*
* Freq(Hz) SPL(dB) Phase(degrees)
1.000000 41.112 129.7948
1.015000 41.287 128.4708
1.030000 41.463 127.1681
1.044000 41.626 125.9750
1.060000 41.812 124.6426
1.075000 41.985 123.4278
1.090000 42.157 122.2502
1.106000 42.339 121.0363
1.120000 42.499 119.9926
1.138000 42.707 118.6701
1.150000 42.846 117.8000
1.172000 43.103 116.2278
1.180000 43.197 115.6631
1.206000 43.504 113.8525
1.220000 43.670 112.8923
1.241000 43.920 111.4700
1.250000 44.027 110.8667
1.265000 44.206 109.8692
1.280000 44.385 108.8809
1.315000 44.803 106.6078
1.320000 44.863 106.2865
1.340000 45.101 105.0090
1.360000 45.339 103.7427
1.380000 45.576 102.4862
1.400000 45.812 101.2381
1.430000 46.163 99.3786
1.450000 46.395 98.1452
1.475000 46.682 96.6084
1.500000 46.969 95.0797
1.525000 47.256 93.5616
1.550000 47.542 92.0560
1.575000 47.828 90.5648
1.600000 48.113 89.0899
1.625000 48.397 87.6333
1.650000 48.679 86.1968
1.675000 48.960 84.7823
1.700000 49.238 83.3919
1.725000 49.514 82.0273
1.750000 49.788 80.6905
1.775000 50.058 79.3834
1.800000 50.325 78.1080
1.825000 50.588 76.8661
1.850000 50.848 75.6603
1.875000 51.105 74.4918
1.900000 51.359 73.3580
1.925000 51.611 72.2563
1.950000 51.860 71.1841
1.975000 52.107 70.1388
2.000000 52.351 69.1178
2.030000 52.641 67.9210
2.060000 52.927 66.7510
2.090000 53.210 65.6030
2.120000 53.490 64.4728
2.140000 53.675 63.7269
2.180000 54.040 62.2473
2.200000 54.221 61.5110
2.240000 54.577 60.0637
2.270000 54.840 59.0056
2.300000 55.099 57.9695
2.330000 55.355 56.9541
2.360000 55.607 55.9582
2.400000 55.940 54.6583
2.430000 56.185 53.7028
2.470000 56.509 52.4521
2.500000 56.749 51.5300
2.540000 57.066 50.3193
2.580000 57.380 49.1289
2.620000 57.688 47.9692
2.650000 57.916 47.1200
2.690000 58.216 46.0127
2.720000 58.437 45.1994
2.760000 58.730 44.1352
2.800000 59.018 43.0917
2.850000 59.374 41.8118
2.900000 59.726 40.5535
2.950000 60.074 39.3138
3.000000 60.416 38.1109
3.040000 60.686 37.1740
3.070000 60.886 36.4836
3.110000 61.150 35.5760
3.150000 61.411 34.6795
3.200000 61.733 33.5684
3.250000 62.051 32.4604
3.300000 62.366 31.3478
3.350000 62.676 30.2359
3.400000 62.982 29.1321
3.450000 63.283 28.0358
3.500000 63.581 26.9464
3.550000 63.873 25.8635
3.600000 64.162 24.7865
3.650000 64.446 23.7149
3.700000 64.725 22.6502
3.750000 65.000 21.5954
3.820000 65.378 20.1311
3.870000 65.643 19.0907
3.950000 66.057 17.4288
4.000000 66.309 16.3880
4.060000 66.605 15.1328
4.120000 66.895 13.8701
4.180000 67.177 12.6048
4.250000 67.498 11.1324
4.310000 67.766 9.8796
4.370000 68.027 8.6409
4.440000 68.322 7.2159
4.500000 68.567 6.0035
4.550000 68.766 5.0007
4.620000 69.037 3.6116
4.680000 69.262 2.4376
4.750000 69.517 1.0911
4.820000 69.764 -0.2327
4.870000 69.935 -1.1683
4.940000 70.167 -2.4595
5.000000 70.359 -3.5448
5.080000 70.610 -4.9537
5.150000 70.823 -6.1447
5.220000 71.030 -7.3001
5.300000 71.257 -8.5797
5.380000 71.479 -9.8165
5.450000 71.670 -10.8641
5.520000 71.859 -11.8791
5.600000 72.070 -12.9924
5.700000 72.328 -14.3233
5.800000 72.583 -15.6034
5.900000 72.838 -16.8459
6.000000 73.091 -18.0326
6.080000 73.293 -18.9523
6.150000 73.469 -19.7469
6.220000 73.646 -20.5415
6.300000 73.848 -21.4449
6.400000 74.101 -22.5555
6.500000 74.352 -23.6647
6.600000 74.601 -24.7928
6.700000 74.848 -25.9405
6.800000 75.092 -27.1008
6.900000 75.332 -28.2759
7.000000 75.564 -29.4688
7.100000 75.791 -30.6843
7.200000 76.012 -31.9131
7.300000 76.224 -33.1436
7.400000 76.427 -34.3739
7.500000 76.622 -35.6126
7.620000 76.845 -37.0872
7.750000 77.075 -38.6442
7.880000 77.289 -40.1716
8.000000 77.477 -41.5419
8.120000 77.659 -42.8579
8.250000 77.845 -44.2280
8.380000 78.025 -45.5434
8.500000 78.188 -46.7069
8.620000 78.348 -47.8189
8.750000 78.518 -48.9839
8.850000 78.649 -49.8604
9.000000 78.845 -51.1312
9.120000 78.999 -52.1287
9.250000 79.166 -53.2044
9.380000 79.331 -54.2673
9.500000 79.480 -55.2427
9.620000 79.626 -56.2183
9.750000 79.780 -57.2719
9.880000 79.929 -58.3117
10.000000 80.061 -59.2593
10.150000 80.220 -60.4258
10.300000 80.374 -61.5503
10.440000 80.511 -62.5622
10.600000 80.664 -63.6717
10.750000 80.805 -64.6571
10.900000 80.946 -65.5969
11.060000 81.099 -66.5667
11.200000 81.235 -67.3814
11.380000 81.414 -68.4247
11.500000 81.537 -69.1212
11.720000 81.765 -70.4224
11.800000 81.848 -70.9141
12.060000 82.116 -72.5693
12.200000 82.256 -73.5068
12.410000 82.456 -74.9646
12.500000 82.537 -75.5992
12.650000 82.666 -76.6774
12.800000 82.787 -77.7581
13.150000 83.035 -80.2393
13.200000 83.067 -80.5829
13.400000 83.188 -81.9286
13.600000 83.301 -83.2175
13.800000 83.407 -84.4428
14.000000 83.509 -85.6155
14.300000 83.659 -87.2850
14.500000 83.758 -88.3561
14.750000 83.879 -89.6632
15.000000 83.998 -90.9424
15.250000 84.113 -92.1983
15.500000 84.225 -93.4263
15.750000 84.332 -94.6237
16.000000 84.435 -95.7859
16.250000 84.537 -96.9145
16.500000 84.637 -98.0128
16.750000 84.736 -99.0867
17.000000 84.834 -100.1450
17.250000 84.930 -101.1913
17.500000 85.025 -102.2299
17.750000 85.116 -103.2601
18.000000 85.204 -104.2791
18.250000 85.287 -105.2836
18.500000 85.367 -106.2679
18.750000 85.443 -107.2298
19.000000 85.516 -108.1677
19.250000 85.586 -109.0824
19.500000 85.655 -109.9765
19.750000 85.722 -110.8521
20.000000 85.787 -111.7130
20.299999 85.863 -112.7299
20.600000 85.936 -113.7323
20.900000 86.007 -114.7233
21.200001 86.075 -115.7058
21.400000 86.118 -116.3570
21.799999 86.199 -117.6491
22.000000 86.237 -118.2878
22.400000 86.308 -119.5437
22.700001 86.359 -120.4631
23.000000 86.408 -121.3653
23.299999 86.457 -122.2603
23.600000 86.505 -123.1571
24.000000 86.566 -124.3587
24.299999 86.606 -125.2501
24.700001 86.656 -126.3910
25.000000 86.696 -127.1959
25.400000 86.760 -128.2249
25.799999 86.841 -129.2990
26.200001 86.929 -130.5305
26.500000 86.984 -131.5735
26.900000 87.025 -133.0416
27.200001 87.026 -134.0824
27.600000 87.001 -135.2292
28.000000 86.977 -136.0249
28.500000 86.994 -136.7007
29.000000 87.070 -137.4335
29.500000 87.156 -138.4381
30.000000 87.208 -139.5482
30.400000 87.228 -140.3239
30.700001 87.244 -140.8087
31.100000 87.278 -141.3940
31.500000 87.325 -142.0149
32.000000 87.382 -142.9299
32.500000 87.416 -143.9251
33.000000 87.428 -144.8524
33.500000 87.436 -145.6743
34.000000 87.451 -146.4643
34.500000 87.467 -147.2855
35.000000 87.478 -148.1270
35.500000 87.484 -148.9503
36.000000 87.490 -149.7455
36.500000 87.499 -150.5285
37.000000 87.509 -151.3123
37.500000 87.520 -152.0974
38.200001 87.533 -153.1844
38.700001 87.540 -153.9352
39.500000 87.553 -155.0754
40.000000 87.564 -155.7739
40.599998 87.574 -156.6185
41.200001 87.575 -157.4378
41.799999 87.572 -158.1894
42.500000 87.572 -159.0085
43.099998 87.574 -159.7274
43.700001 87.568 -160.4589
44.400002 87.552 -161.2628
45.000000 87.540 -161.9048
45.500000 87.532 -162.4446
46.200001 87.518 -163.2270
46.799999 87.502 -163.8888
47.500000 87.482 -164.6334
48.200001 87.464 -165.3814
48.700001 87.448 -165.9066
49.400002 87.425 -166.5819
50.000000 87.415 -167.1266
50.799999 87.412 -167.9138
51.500000 87.401 -168.6499
52.200001 87.383 -169.3360
53.000000 87.364 -170.0612
53.799999 87.343 -170.7788
54.500000 87.318 -171.3528
55.200001 87.299 -171.8623
56.000000 87.287 -172.4663
57.000000 87.264 -173.3120
58.000000 87.228 -174.1339
59.000000 87.190 -174.9195
60.000000 87.150 -175.6836
60.799999 87.119 -176.2677
61.500000 87.092 -176.7631
62.200001 87.067 -177.2438
63.000000 87.039 -177.7807
64.000000 87.004 -178.4462
65.000000 86.965 -179.0851
66.000000 86.926 -179.6869
67.000000 86.887 179.7256
68.000000 86.849 179.1461
69.000000 86.809 178.5691
70.000000 86.767 178.0075
71.000000 86.723 177.4832
72.000000 86.682 176.9799
73.000000 86.641 176.4816
74.000000 86.598 175.9869
75.000000 86.554 175.5007
76.199997 86.499 174.9368
77.500000 86.440 174.3638
78.800003 86.386 173.8205
80.000000 86.338 173.3244
81.199997 86.289 172.8301
82.500000 86.232 172.3110
83.800003 86.173 171.8118
85.000000 86.118 171.3645
86.199997 86.063 170.9391
87.500000 86.007 170.4958
88.500000 85.965 170.1593
90.000000 85.901 169.6788
91.199997 85.850 169.3151
92.500000 85.794 168.9279
93.800003 85.736 168.5502
95.000000 85.683 168.2184
96.199997 85.632 167.8930
97.500000 85.578 167.5425
98.800003 85.523 167.2099
100.000000 85.473 166.9218
101.500000 85.411 166.5677
103.000000 85.348 166.2033
104.400002 85.287 165.8729
106.000000 85.217 165.5151
107.500000 85.154 165.2048
109.000000 85.094 164.9065
110.599998 85.028 164.5953
112.000000 84.969 164.3408
113.800003 84.893 164.0361
115.000000 84.845 163.8385
117.199997 84.757 163.4833
118.000000 84.726 163.3618
120.599998 84.626 162.9885
122.000000 84.572 162.7889
124.099998 84.487 162.5066
125.000000 84.450 162.3925
126.500000 84.392 162.2085
128.000000 84.335 162.0310
131.500000 84.201 161.6875
132.000000 84.182 161.6478
134.000000 84.105 161.5091
136.000000 84.034 161.3543
138.000000 83.961 161.1412
140.000000 83.886 160.9484
143.000000 83.779 160.7182
145.000000 83.708 160.6054
147.500000 83.617 160.5051
150.000000 83.532 160.4150
152.500000 83.451 160.2368
155.000000 83.366 160.0620
157.500000 83.282 159.9387
160.000000 83.199 159.8514
162.500000 83.116 159.7844
165.000000 83.033 159.7267
167.500000 82.949 159.6811
170.000000 82.866 159.6426
172.500000 82.785 159.6152
175.000000 82.707 159.6020
177.500000 82.629 159.5940
180.000000 82.549 159.5926
182.500000 82.469 159.6096
185.000000 82.390 159.6385
187.500000 82.310 159.6704
190.000000 82.228 159.7111
192.500000 82.146 159.7808
195.000000 82.064 159.8792
197.500000 81.980 159.9968
200.000000 81.897 160.1315
203.000000 81.792 160.3372
206.000000 81.679 160.6678
209.000000 81.568 161.1467
212.000000 81.467 161.7753
214.000000 81.413 162.3050
218.000000 81.364 163.5630
220.000000 81.380 164.1721
224.000000 81.485 164.9599
227.000000 81.577 165.0259
230.000000 81.636 164.7416
233.000000 81.655 164.3032
236.000000 81.639 163.8733
240.000000 81.572 163.4351
243.000000 81.501 163.2348
247.000000 81.405 163.0844
250.000000 81.335 163.0393
254.000000 81.248 163.0682
258.000000 81.163 163.1588
262.000000 81.080 163.2831
265.000000 81.021 163.3931
269.000000 80.943 163.5526
272.000000 80.886 163.6779
276.000000 80.813 163.8644
280.000000 80.743 164.0698
285.000000 80.660 164.3384
290.000000 80.577 164.6202
295.000000 80.498 164.9053
300.000000 80.420 165.2118
304.000000 80.359 165.4728
307.000000 80.315 165.6767
311.000000 80.259 165.9527
315.000000 80.203 166.2324
320.000000 80.133 166.6057
325.000000 80.065 167.0152
330.000000 80.007 167.4384
335.000000 79.955 167.8056
340.000000 79.903 168.1775
345.000000 79.854 168.5558
350.000000 79.811 168.9131
355.000000 79.769 169.2612
360.000000 79.726 169.5958
365.000000 79.681 169.9058
370.000000 79.635 170.2139
375.000000 79.587 170.5396
382.000000 79.522 171.0284
387.000000 79.477 171.3869
395.000000 79.410 171.9651
400.000000 79.368 172.3258
406.000000 79.320 172.7547
412.000000 79.272 173.1978
418.000000 79.227 173.6544
425.000000 79.178 174.1869
431.000000 79.137 174.6466
437.000000 79.097 175.1047
444.000000 79.053 175.6500
450.000000 79.017 176.1205
455.000000 78.989 176.4949
462.000000 78.951 177.0055
468.000000 78.918 177.4455
475.000000 78.882 177.9752
482.000000 78.848 178.5123
487.000000 78.825 178.8934
494.000000 78.793 179.4221
500.000000 78.767 179.8715
508.000000 78.733 -179.5212
515.000000 78.704 -178.9680
522.000000 78.678 -178.4052
530.000000 78.651 -177.8092
538.000000 78.626 -177.2134
545.000000 78.607 -176.6760
552.000000 78.587 -176.1383
560.000000 78.563 -175.5226
570.000000 78.537 -174.7497
580.000000 78.515 -173.9686
590.000000 78.496 -173.1877
600.000000 78.480 -172.4306
608.000000 78.469 -171.8180
615.000000 78.460 -171.2811
622.000000 78.453 -170.7451
630.000000 78.445 -170.1284
640.000000 78.438 -169.3549
650.000000 78.433 -168.5749
660.000000 78.430 -167.7833
670.000000 78.432 -167.0076
680.000000 78.436 -166.2344
690.000000 78.440 -165.4588
700.000000 78.447 -164.6810
710.000000 78.459 -163.9070
720.000000 78.473 -163.1350
730.000000 78.490 -162.3515
740.000000 78.507 -161.5640
750.000000 78.528 -160.7870
762.000000 78.558 -159.8704
775.000000 78.595 -158.8746
788.000000 78.637 -157.8726
800.000000 78.680 -156.9486
812.000000 78.727 -156.0421
825.000000 78.783 -155.0756
838.000000 78.843 -154.1154
850.000000 78.903 -153.2370
862.000000 78.968 -152.3694
875.000000 79.044 -151.4548
885.000000 79.105 -150.7559
900.000000 79.201 -149.7249
912.000000 79.282 -148.9264
925.000000 79.375 -148.0830
938.000000 79.474 -147.2622
950.000000 79.569 -146.5289
962.000000 79.666 -145.8187
975.000000 79.775 -145.0759
988.000000 79.888 -144.3591
1000.000000 79.996 -143.7270
1015.000000 80.135 -142.9848
1030.000000 80.277 -142.2968
1044.000000 80.413 -141.6951
1060.000000 80.571 -141.0670
1075.000000 80.719 -140.5438
1090.000000 80.867 -140.0739
1106.000000 81.025 -139.6280
1120.000000 81.163 -139.2816
1138.000000 81.337 -138.8967
1150.000000 81.451 -138.6718
1172.000000 81.657 -138.3150
1180.000000 81.730 -138.2046
1206.000000 81.962 -137.9117
1220.000000 82.086 -137.7907
1241.000000 82.265 -137.6559
1250.000000 82.339 -137.6105
1265.000000 82.459 -137.5483
1280.000000 82.576 -137.5007
1315.000000 82.838 -137.4549
1320.000000 82.874 -137.4544
1340.000000 83.017 -137.4624
1360.000000 83.156 -137.4835
1380.000000 83.291 -137.5127
1400.000000 83.423 -137.5531
1430.000000 83.617 -137.6272
1450.000000 83.744 -137.6938
1475.000000 83.900 -137.7980
1500.000000 84.056 -137.9176
1525.000000 84.213 -138.0704
1550.000000 84.371 -138.2736
1575.000000 84.530 -138.5443
1600.000000 84.685 -138.9216
1625.000000 84.831 -139.4258
1650.000000 84.957 -140.0531
1675.000000 85.051 -140.7559
1700.000000 85.105 -141.4312
1725.000000 85.124 -141.9505
1750.000000 85.121 -142.2007
1775.000000 85.118 -142.1405
1800.000000 85.138 -141.8167
1825.000000 85.194 -141.3434
1850.000000 85.287 -140.8376
1875.000000 85.412 -140.3828
1900.000000 85.562 -140.0310
1925.000000 85.727 -139.8043
1950.000000 85.901 -139.6976
1975.000000 86.081 -139.7000
2000.000000 86.266 -139.8013
2030.000000 86.495 -140.0465
2060.000000 86.732 -140.4513
2090.000000 86.971 -141.0596
2120.000000 87.202 -141.8860
2140.000000 87.347 -142.5461
2180.000000 87.611 -144.0667
2200.000000 87.730 -144.9057
2240.000000 87.942 -146.7071
2270.000000 88.078 -148.1552
2300.000000 88.192 -149.6768
2330.000000 88.285 -151.2627
2360.000000 88.355 -152.9041
2400.000000 88.410 -155.1582
2430.000000 88.419 -156.8817
2470.000000 88.385 -159.1922
2500.000000 88.322 -160.9033
2540.000000 88.181 -163.0840
2580.000000 87.969 -165.0181
2620.000000 87.690 -166.4860
2650.000000 87.451 -167.1316
2690.000000 87.139 -167.2758
2720.000000 86.946 -166.9104
2760.000000 86.778 -166.0856
2800.000000 86.709 -165.2292
2850.000000 86.726 -164.4368
2900.000000 86.825 -164.1743
2950.000000 86.946 -164.6665
3000.000000 87.012 -165.8029
3040.000000 87.000 -166.8913
3070.000000 86.957 -167.6871
3110.000000 86.867 -168.6461
3150.000000 86.748 -169.4595
3200.000000 86.569 -170.2602
3250.000000 86.358 -170.7509
3300.000000 86.132 -170.7568
3350.000000 85.945 -170.2812
3400.000000 85.828 -169.6588
3450.000000 85.757 -169.1496
3500.000000 85.704 -168.7691
3550.000000 85.659 -168.4634
3600.000000 85.622 -168.2056
3650.000000 85.594 -167.9862
3700.000000 85.574 -167.8123
3750.000000 85.562 -167.7146
3820.000000 85.558 -167.7828
3870.000000 85.557 -168.0548
3950.000000 85.517 -169.0560
4000.000000 85.415 -169.9962
4060.000000 85.160 -170.9497
4120.000000 84.796 -170.9107
4180.000000 84.467 -169.6917
4250.000000 84.235 -167.6910
4310.000000 84.123 -165.9588
4370.000000 84.068 -164.1716
4440.000000 84.096 -162.0715
4500.000000 84.212 -160.4942
4550.000000 84.363 -159.5506
4620.000000 84.609 -159.0577
4680.000000 84.788 -159.4674
4750.000000 84.884 -160.7400
4820.000000 84.790 -162.3637
4870.000000 84.588 -163.2800
4940.000000 84.143 -163.4628
5000.000000 83.691 -162.0036
5080.000000 83.253 -157.6334
5150.000000 83.231 -152.9154
5220.000000 83.493 -148.8560
5300.000000 83.951 -145.5328
5380.000000 84.453 -143.4433
5450.000000 84.883 -142.3504
5520.000000 85.294 -141.7339
5600.000000 85.746 -141.4742
5700.000000 86.281 -141.7412
5800.000000 86.766 -142.6216
5900.000000 87.180 -143.9368
6000.000000 87.522 -145.4189
6080.000000 87.763 -146.5810
6150.000000 87.965 -147.5962
6220.000000 88.155 -148.6619
6300.000000 88.353 -149.8586
6400.000000 88.615 -151.2710
6500.000000 88.897 -152.9434
6600.000000 89.151 -154.9245
6700.000000 89.370 -156.9798
6800.000000 89.575 -159.0018
6900.000000 89.787 -161.0204
7000.000000 90.019 -163.1228
7100.000000 90.281 -165.4122
7200.000000 90.576 -168.0156
7300.000000 90.915 -171.1264
7400.000000 91.291 -175.1408
7500.000000 91.631 179.4412
7620.000000 91.792 171.0628
7750.000000 91.471 161.5565
7880.000000 90.812 153.9557
8000.000000 90.174 147.9357
8120.000000 89.441 141.9845
8250.000000 88.433 136.3604
8380.000000 87.263 132.3278
8500.000000 86.129 130.1011
8620.000000 85.005 129.1891
8750.000000 83.852 129.4908
8850.000000 83.047 130.4079
9000.000000 81.994 132.2966
9120.000000 81.242 133.9669
9250.000000 80.474 136.0523
9380.000000 79.770 138.5022
9500.000000 79.190 140.8493
9620.000000 78.629 143.1204
9750.000000 77.952 146.1224
9880.000000 77.275 150.8913
10000.000000 76.906 156.6911
10150.000000 76.941 163.5096
10300.000000 77.265 168.3003
10440.000000 77.620 171.1638
10600.000000 78.011 173.0886
10750.000000 78.316 173.8958
10900.000000 78.530 174.3233
11060.000000 78.738 175.1321
11200.000000 79.038 176.0742
11380.000000 79.668 176.3829
11500.000000 80.184 175.2513
11720.000000 81.012 169.2278
11800.000000 81.169 165.8228
12060.000000 80.757 153.9173
12200.000000 80.005 150.2915
12410.000000 78.956 150.2694
12500.000000 78.733 151.0005
12650.000000 78.604 151.5084
12800.000000 78.563 150.7301
13150.000000 78.130 147.4941
13200.000000 78.038 147.2815
13400.000000 77.752 147.2072
13600.000000 77.631 147.2764
13800.000000 77.525 147.5423
14000.000000 77.561 149.3979
14300.000000 78.659 153.5314
14500.000000 80.204 153.7143
14750.000000 82.460 146.7291
15000.000000 84.198 130.5154
15250.000000 84.863 108.7461
15500.000000 84.449 87.6311
15750.000000 83.438 71.0092
16000.000000 82.451 57.9446
16250.000000 81.759 45.3894
16500.000000 81.236 31.1460
16750.000000 80.600 14.5198
17000.000000 79.584 -3.5215
17250.000000 78.101 -20.8109
17500.000000 76.317 -36.0297
17750.000000 74.463 -49.5905
18000.000000 72.636 -62.2157
18250.000000 70.855 -74.1823
18500.000000 69.181 -85.8348
18750.000000 67.677 -98.0767
19000.000000 66.282 -111.6855
19250.000000 64.865 -126.4034
19500.000000 63.436 -141.5066
19750.000000 62.203 -156.0195
