* Measurement data measured by REW V5.20.9
* Source: Frequency Response Averaged data
* Format: Averaged data produced from the rms magnitudes of Jul 11, Jul 11, Jul 11
* Dated: 11/07/2022 8:56:29 PM
* REW Settings:
*  C-weighting compensation: Off
*  Target level: 75.0 dB
* Note: ; Averaged data produced from the rms magnitudes of Jul 11, Jul 11, Jul 11
* Measurement: Fiio FD5 - L
* Smoothing: 1/24 octave
* Frequency Step: 1/48 octave
* Start Frequency: 2.200 Hz
*
* Freq(Hz) SPL(dB)
2.200000 72.924
2.240000 73.093
2.270000 73.220
2.300000 73.348
2.330000 73.475
2.360000 73.602
2.400000 73.772
2.430000 73.899
2.470000 74.069
2.500000 74.196
2.540000 74.365
2.580000 74.540
2.620000 74.729
2.650000 74.876
2.690000 75.077
2.720000 75.228
2.760000 75.429
2.800000 75.624
2.850000 75.854
2.900000 76.062
2.950000 76.241
3.000000 76.393
3.040000 76.499
3.070000 76.572
3.110000 76.661
3.150000 76.743
3.200000 76.842
3.250000 76.940
3.300000 77.042
3.350000 77.145
3.400000 77.244
3.450000 77.339
3.500000 77.432
3.550000 77.522
3.600000 77.609
3.650000 77.695
3.700000 77.778
3.750000 77.856
3.820000 77.960
3.870000 78.032
3.950000 78.150
4.000000 78.228
4.060000 78.326
4.120000 78.426
4.180000 78.527
4.250000 78.650
4.310000 78.761
4.370000 78.879
4.440000 79.027
4.500000 79.160
4.550000 79.277
4.620000 79.446
4.680000 79.596
4.750000 79.777
4.820000 79.966
4.870000 80.106
4.940000 80.309
5.000000 80.486
5.080000 80.725
5.150000 80.935
5.220000 81.149
5.300000 81.399
5.380000 81.650
5.450000 81.865
5.520000 82.076
5.600000 82.313
5.700000 82.606
5.800000 82.888
5.900000 83.156
6.000000 83.412
6.080000 83.609
6.150000 83.774
6.220000 83.933
6.300000 84.106
6.400000 84.310
6.500000 84.502
6.600000 84.687
6.700000 84.861
6.800000 85.026
6.900000 85.185
7.000000 85.341
7.100000 85.492
7.200000 85.639
7.300000 85.783
7.400000 85.925
7.500000 86.065
7.620000 86.228
7.750000 86.396
7.880000 86.558
8.000000 86.698
8.120000 86.825
8.250000 86.951
8.380000 87.063
8.500000 87.154
8.620000 87.232
8.750000 87.310
8.850000 87.367
9.000000 87.444
9.120000 87.510
9.250000 87.591
9.380000 87.680
9.500000 87.774
9.620000 87.885
9.750000 88.020
9.880000 88.165
10.000000 88.309
10.150000 88.501
10.300000 88.687
10.440000 88.858
10.600000 89.038
10.750000 89.183
10.900000 89.307
11.060000 89.411
11.200000 89.478
11.380000 89.538
11.500000 89.562
11.720000 89.584
11.800000 89.590
12.060000 89.600
12.200000 89.613
12.410000 89.645
12.500000 89.666
12.650000 89.712
12.800000 89.767
13.150000 89.934
13.200000 89.960
13.400000 90.068
13.600000 90.175
13.800000 90.277
14.000000 90.371
14.300000 90.492
14.500000 90.560
14.750000 90.636
15.000000 90.704
15.250000 90.770
15.500000 90.838
15.750000 90.910
16.000000 90.988
16.250000 91.070
16.500000 91.154
16.750000 91.238
17.000000 91.320
17.250000 91.400
17.500000 91.476
17.750000 91.548
18.000000 91.616
18.250000 91.678
18.500000 91.734
18.750000 91.786
19.000000 91.833
19.250000 91.878
19.500000 91.921
19.750000 91.964
20.000000 92.007
20.299999 92.056
20.600000 92.102
20.900000 92.144
21.200001 92.181
21.400000 92.205
21.799999 92.253
22.000000 92.280
22.400000 92.338
22.700001 92.385
23.000000 92.428
23.299999 92.462
23.600000 92.483
24.000000 92.494
24.299999 92.502
24.700001 92.533
25.000000 92.590
25.400000 92.711
25.799999 92.857
26.200001 92.981
26.500000 93.034
26.900000 93.044
27.200001 93.018
27.600000 92.969
28.000000 92.939
28.500000 92.945
29.000000 92.967
29.500000 92.969
30.000000 92.955
30.400000 92.951
30.700001 92.957
31.100000 92.969
31.500000 92.976
32.000000 92.976
32.500000 92.980
33.000000 93.002
33.500000 93.032
34.000000 93.050
34.500000 93.055
35.000000 93.061
35.500000 93.083
36.000000 93.113
36.500000 93.130
37.000000 93.129
37.500000 93.121
38.200001 93.119
38.700001 93.129
39.500000 93.154
40.000000 93.167
40.599998 93.169
41.200001 93.150
41.799999 93.131
42.500000 93.140
43.099998 93.169
43.700001 93.189
44.400002 93.191
45.000000 93.185
45.500000 93.176
46.200001 93.167
46.799999 93.181
47.500000 93.215
48.200001 93.219
48.700001 93.199
49.400002 93.181
50.000000 93.190
50.799999 93.176
51.500000 93.115
52.200001 93.061
53.000000 93.043
53.799999 93.038
54.500000 93.028
55.200001 93.017
56.000000 93.003
57.000000 92.986
58.000000 92.962
59.000000 92.937
60.000000 92.921
60.799999 92.903
61.500000 92.881
62.200001 92.858
63.000000 92.841
64.000000 92.828
65.000000 92.800
66.000000 92.760
67.000000 92.723
68.000000 92.689
69.000000 92.650
70.000000 92.602
71.000000 92.553
72.000000 92.501
73.000000 92.448
74.000000 92.407
75.000000 92.361
76.199997 92.283
77.500000 92.194
78.800003 92.127
80.000000 92.113
81.199997 92.182
82.500000 92.251
83.800003 92.258
85.000000 92.261
86.199997 92.273
87.500000 92.262
88.500000 92.247
90.000000 92.217
91.199997 92.195
92.500000 92.167
93.800003 92.140
95.000000 92.113
96.199997 92.064
97.500000 91.997
98.800003 91.931
100.000000 91.896
101.500000 91.843
103.000000 91.753
104.400002 91.707
106.000000 91.698
107.500000 91.669
109.000000 91.631
110.599998 91.596
112.000000 91.562
113.800003 91.509
115.000000 91.471
117.199997 91.388
118.000000 91.352
120.599998 91.230
122.000000 91.183
124.099998 91.142
125.000000 91.127
126.500000 91.103
128.000000 91.082
131.500000 91.045
132.000000 91.042
134.000000 90.985
136.000000 90.871
138.000000 90.780
140.000000 90.708
143.000000 90.614
145.000000 90.547
147.500000 90.447
150.000000 90.360
152.500000 90.313
155.000000 90.269
157.500000 90.203
160.000000 90.131
162.500000 90.057
165.000000 89.986
167.500000 89.926
170.000000 89.864
172.500000 89.797
175.000000 89.729
177.500000 89.659
180.000000 89.590
182.500000 89.522
185.000000 89.453
187.500000 89.385
190.000000 89.320
192.500000 89.255
195.000000 89.193
197.500000 89.134
200.000000 89.075
203.000000 89.004
206.000000 88.933
209.000000 88.864
212.000000 88.795
214.000000 88.750
218.000000 88.658
220.000000 88.610
224.000000 88.518
227.000000 88.452
230.000000 88.386
233.000000 88.320
236.000000 88.258
240.000000 88.178
243.000000 88.111
247.000000 88.029
250.000000 87.971
254.000000 87.887
258.000000 87.809
262.000000 87.738
265.000000 87.686
269.000000 87.613
272.000000 87.558
276.000000 87.490
280.000000 87.421
285.000000 87.330
290.000000 87.246
295.000000 87.163
300.000000 87.080
304.000000 87.018
307.000000 86.970
311.000000 86.907
315.000000 86.845
320.000000 86.770
325.000000 86.702
330.000000 86.633
335.000000 86.564
340.000000 86.493
345.000000 86.427
350.000000 86.364
355.000000 86.298
360.000000 86.232
365.000000 86.171
370.000000 86.112
375.000000 86.054
382.000000 85.971
387.000000 85.914
395.000000 85.831
400.000000 85.780
406.000000 85.715
412.000000 85.654
418.000000 85.593
425.000000 85.526
431.000000 85.472
437.000000 85.418
444.000000 85.356
450.000000 85.307
455.000000 85.263
462.000000 85.202
468.000000 85.153
475.000000 85.100
482.000000 85.048
487.000000 85.010
494.000000 84.960
500.000000 84.920
508.000000 84.866
515.000000 84.820
522.000000 84.776
530.000000 84.729
538.000000 84.681
545.000000 84.640
552.000000 84.604
560.000000 84.565
570.000000 84.513
580.000000 84.463
590.000000 84.417
600.000000 84.380
608.000000 84.350
615.000000 84.320
622.000000 84.296
630.000000 84.272
640.000000 84.239
650.000000 84.203
660.000000 84.174
670.000000 84.153
680.000000 84.135
690.000000 84.118
700.000000 84.103
710.000000 84.090
720.000000 84.079
730.000000 84.070
740.000000 84.064
750.000000 84.061
762.000000 84.065
775.000000 84.075
788.000000 84.087
800.000000 84.103
812.000000 84.124
825.000000 84.149
838.000000 84.179
850.000000 84.212
862.000000 84.250
875.000000 84.296
885.000000 84.332
900.000000 84.388
912.000000 84.438
925.000000 84.495
938.000000 84.553
950.000000 84.608
962.000000 84.668
975.000000 84.743
988.000000 84.855
1000.000000 84.998
1015.000000 85.168
1030.000000 85.275
1044.000000 85.345
1060.000000 85.422
1075.000000 85.499
1090.000000 85.571
1106.000000 85.635
1120.000000 85.684
1138.000000 85.750
1150.000000 85.803
1172.000000 85.921
1180.000000 85.965
1206.000000 86.104
1220.000000 86.177
1241.000000 86.285
1250.000000 86.331
1265.000000 86.406
1280.000000 86.478
1315.000000 86.642
1320.000000 86.665
1340.000000 86.757
1360.000000 86.848
1380.000000 86.940
1400.000000 87.031
1430.000000 87.167
1450.000000 87.259
1475.000000 87.377
1500.000000 87.495
1525.000000 87.613
1550.000000 87.734
1575.000000 87.859
1600.000000 87.986
1625.000000 88.116
1650.000000 88.250
1675.000000 88.387
1700.000000 88.525
1725.000000 88.668
1750.000000 88.813
1775.000000 88.958
1800.000000 89.104
1825.000000 89.250
1850.000000 89.398
1875.000000 89.547
1900.000000 89.698
1925.000000 89.848
1950.000000 89.995
1975.000000 90.139
2000.000000 90.281
2030.000000 90.447
2060.000000 90.606
2090.000000 90.758
2120.000000 90.908
2140.000000 91.009
2180.000000 91.230
2200.000000 91.353
2240.000000 91.618
2270.000000 91.815
2300.000000 91.996
2330.000000 92.155
2360.000000 92.291
2400.000000 92.436
2430.000000 92.521
2470.000000 92.605
2500.000000 92.647
2540.000000 92.677
2580.000000 92.680
2620.000000 92.657
2650.000000 92.624
2690.000000 92.561
2720.000000 92.500
2760.000000 92.405
2800.000000 92.296
2850.000000 92.143
2900.000000 91.979
2950.000000 91.808
3000.000000 91.632
3040.000000 91.490
3070.000000 91.383
3110.000000 91.243
3150.000000 91.105
3200.000000 90.937
3250.000000 90.776
3300.000000 90.623
3350.000000 90.479
3400.000000 90.346
3450.000000 90.222
3500.000000 90.109
3550.000000 90.008
3600.000000 89.919
3650.000000 89.836
3700.000000 89.758
3750.000000 89.682
3820.000000 89.585
3870.000000 89.531
3950.000000 89.494
4000.000000 89.507
4060.000000 89.558
4120.000000 89.644
4180.000000 89.759
4250.000000 89.920
4310.000000 90.078
4370.000000 90.256
4440.000000 90.486
4500.000000 90.705
4550.000000 90.901
4620.000000 91.196
4680.000000 91.467
4750.000000 91.801
4820.000000 92.152
4870.000000 92.412
4940.000000 92.787
5000.000000 93.111
5080.000000 93.527
5150.000000 93.846
5220.000000 94.087
5300.000000 94.240
5380.000000 94.295
5450.000000 94.331
5520.000000 94.357
5600.000000 94.305
5700.000000 94.058
5800.000000 93.631
5900.000000 93.092
6000.000000 92.501
6080.000000 92.023
6150.000000 91.617
6220.000000 91.229
6300.000000 90.816
6400.000000 90.354
6500.000000 89.956
6600.000000 89.627
6700.000000 89.368
6800.000000 89.179
6900.000000 89.061
7000.000000 89.017
7100.000000 89.050
7200.000000 89.161
7300.000000 89.348
7400.000000 89.614
7500.000000 89.964
7620.000000 90.505
7750.000000 91.259
7880.000000 92.197
8000.000000 93.204
8120.000000 94.249
8250.000000 95.189
8380.000000 95.591
8500.000000 95.271
8620.000000 94.310
8750.000000 92.793
8850.000000 91.493
9000.000000 89.591
9120.000000 88.218
9250.000000 86.910
9380.000000 85.782
9500.000000 84.884
9620.000000 84.109
9750.000000 83.397
9880.000000 82.805
10000.000000 82.359
10150.000000 81.930
10300.000000 81.638
10440.000000 81.486
10600.000000 81.460
10750.000000 81.583
10900.000000 81.858
11060.000000 82.334
11200.000000 82.919
11380.000000 83.922
11500.000000 84.745
11720.000000 86.445
11800.000000 87.038
12060.000000 88.185
12200.000000 87.978
12410.000000 86.525
12500.000000 85.605
12650.000000 83.898
12800.000000 82.179
13150.000000 78.742
13200.000000 78.332
13400.000000 76.873
13600.000000 75.675
13800.000000 74.706
14000.000000 73.930
14300.000000 73.050
14500.000000 72.692
14750.000000 72.576
15000.000000 72.847
15250.000000 73.519
15500.000000 74.640
15750.000000 76.238
16000.000000 78.125
16250.000000 79.656
16500.000000 80.046
16750.000000 79.136
17000.000000 77.646
17250.000000 76.385
17500.000000 75.461
17750.000000 74.778
18000.000000 74.313
18250.000000 73.688
18500.000000 72.241
18750.000000 69.599
19000.000000 65.933
19250.000000 61.744
19500.000000 57.578
19750.000000 54.063
