* Measurement data measured by REW V5.20.9
* Source: USB-C to 3.5mm Headphone Jack Adapter, USB-C to 3.5mm Headphone Jack Adapter, 0, volume: 0.138
* Format: 256k Log Swept Sine, 1 sweep at -12.0 dBFS with no timing reference
* Dated: 18/01/2023 7:37:15 PM
* REW Settings:
*  C-weighting compensation: Off
*  Target level: 75.0 dB
* Note: ; 
* Measurement: FH15 Treble R
* Smoothing: 1/24 octave
* Frequency Step: 1/48 octave
* Start Frequency: 1.000 Hz
*
* Freq(Hz) SPL(dB) Phase(degrees)
1.000000 75.932 40.8483
1.015000 76.082 39.3835
1.030000 76.231 38.0147
1.044000 76.370 36.8164
1.060000 76.526 35.5332
1.075000 76.672 34.4068
1.090000 76.817 33.3476
1.106000 76.971 32.2843
1.120000 77.104 31.4039
1.138000 77.274 30.3311
1.150000 77.387 29.6477
1.172000 77.592 28.4475
1.180000 77.666 28.0247
1.206000 77.905 26.6839
1.220000 78.033 25.9742
1.241000 78.223 24.9105
1.250000 78.303 24.4511
1.265000 78.438 23.6750
1.280000 78.571 22.8803
1.315000 78.879 20.9150
1.320000 78.923 20.6179
1.340000 79.096 19.3786
1.360000 79.269 18.0613
1.380000 79.440 16.7040
1.400000 79.609 15.3153
1.430000 79.861 13.1862
1.450000 80.027 11.7450
1.475000 80.232 9.9295
1.500000 80.435 8.1094
1.525000 80.636 6.2965
1.550000 80.834 4.5025
1.575000 81.029 2.7391
1.600000 81.222 1.0183
1.625000 81.412 -0.6484
1.650000 81.599 -2.2491
1.675000 81.784 -3.7721
1.700000 81.966 -5.2117
1.725000 82.145 -6.5826
1.750000 82.321 -7.8930
1.775000 82.494 -9.1502
1.800000 82.665 -10.3615
1.825000 82.833 -11.5342
1.850000 82.999 -12.6759
1.875000 83.162 -13.7936
1.900000 83.323 -14.8950
1.925000 83.482 -15.9872
1.950000 83.639 -17.0776
1.975000 83.794 -18.1736
2.000000 83.947 -19.2825
2.030000 84.128 -20.6375
2.060000 84.307 -21.9938
2.090000 84.481 -23.3425
2.120000 84.653 -24.6825
2.140000 84.766 -25.5703
2.180000 84.987 -27.3314
2.200000 85.096 -28.2040
2.240000 85.310 -29.9314
2.270000 85.468 -31.2102
2.300000 85.624 -32.4734
2.330000 85.777 -33.7197
2.360000 85.928 -34.9481
2.400000 86.126 -36.5622
2.430000 86.271 -37.7562
2.470000 86.460 -39.3259
2.500000 86.599 -40.4861
2.540000 86.781 -42.0098
2.580000 86.959 -43.5066
2.620000 87.134 -44.9760
2.650000 87.262 -46.0596
2.690000 87.431 -47.4797
2.720000 87.556 -48.5212
2.760000 87.719 -49.8721
2.800000 87.877 -51.1870
2.850000 88.071 -52.7920
2.900000 88.260 -54.3681
2.950000 88.443 -55.9305
3.000000 88.623 -57.4945
3.040000 88.763 -58.7566
3.070000 88.867 -59.7089
3.110000 89.002 -60.9810
3.150000 89.134 -62.2512
3.200000 89.295 -63.8289
3.250000 89.452 -65.3860
3.300000 89.604 -66.9128
3.350000 89.752 -68.3996
3.400000 89.897 -69.8371
3.450000 90.037 -71.2272
3.500000 90.173 -72.5807
3.550000 90.304 -73.9086
3.600000 90.432 -75.2218
3.650000 90.555 -76.5312
3.700000 90.675 -77.8479
3.750000 90.790 -79.1758
3.820000 90.945 -81.0379
3.870000 91.051 -82.3606
3.950000 91.212 -84.4443
4.000000 91.307 -85.7151
4.060000 91.416 -87.1973
4.120000 91.519 -88.6388
4.180000 91.616 -90.0460
4.250000 91.722 -91.6508
4.310000 91.807 -92.9998
4.370000 91.886 -94.3290
4.440000 91.972 -95.8614
4.500000 92.039 -97.1560
4.550000 92.091 -98.2160
4.620000 92.158 -99.6629
4.680000 92.211 -100.8607
4.750000 92.267 -102.2023
4.820000 92.316 -103.4937
4.870000 92.348 -104.3855
4.940000 92.388 -105.5899
5.000000 92.419 -106.5800
5.080000 92.459 -107.8376
5.150000 92.488 -108.8786
5.220000 92.514 -109.8664
5.300000 92.541 -110.9331
5.380000 92.570 -111.9369
5.450000 92.596 -112.7583
5.520000 92.621 -113.5241
5.600000 92.650 -114.3439
5.700000 92.692 -115.3079
5.800000 92.742 -116.2048
5.900000 92.798 -117.0202
6.000000 92.860 -117.8026
6.080000 92.915 -118.4356
6.150000 92.968 -118.9797
6.220000 93.025 -119.5153
6.300000 93.094 -120.1324
6.400000 93.181 -120.9372
6.500000 93.273 -121.7771
6.600000 93.368 -122.6446
6.700000 93.460 -123.5520
6.800000 93.547 -124.5118
6.900000 93.631 -125.5211
7.000000 93.709 -126.5611
7.100000 93.777 -127.6159
7.200000 93.836 -128.7032
7.300000 93.885 -129.8037
7.400000 93.924 -130.8852
7.500000 93.951 -131.9496
7.620000 93.969 -133.2091
7.750000 93.976 -134.4927
7.880000 93.968 -135.6828
8.000000 93.951 -136.6997
8.120000 93.932 -137.6151
8.250000 93.906 -138.4882
8.380000 93.882 -139.2639
8.500000 93.867 -139.9009
8.620000 93.858 -140.4561
8.750000 93.857 -141.0262
8.850000 93.865 -141.4488
9.000000 93.889 -142.0577
9.120000 93.915 -142.5818
9.250000 93.951 -143.1842
9.380000 93.991 -143.8279
9.500000 94.025 -144.4766
9.620000 94.060 -145.1745
9.750000 94.091 -145.9597
9.880000 94.112 -146.7755
10.000000 94.125 -147.5482
10.150000 94.131 -148.4806
10.300000 94.122 -149.3863
10.440000 94.109 -150.1685
10.600000 94.085 -150.9656
10.750000 94.062 -151.6292
10.900000 94.044 -152.1983
11.060000 94.031 -152.7257
11.200000 94.032 -153.1553
11.380000 94.047 -153.6655
11.500000 94.066 -154.0331
11.720000 94.118 -154.7554
11.800000 94.138 -155.0535
12.060000 94.208 -156.1579
12.200000 94.239 -156.8254
12.410000 94.273 -157.9093
12.500000 94.281 -158.3752
12.650000 94.284 -159.1668
12.800000 94.278 -159.9229
13.150000 94.227 -161.4675
13.200000 94.218 -161.6532
13.400000 94.179 -162.3132
13.600000 94.149 -162.8483
13.800000 94.128 -163.2888
14.000000 94.124 -163.6808
14.300000 94.141 -164.2882
14.500000 94.162 -164.7445
14.750000 94.191 -165.4027
15.000000 94.211 -166.1248
15.250000 94.219 -166.8593
15.500000 94.216 -167.5612
15.750000 94.206 -168.1866
16.000000 94.197 -168.7360
16.250000 94.195 -169.2392
16.500000 94.200 -169.7304
16.750000 94.212 -170.2551
17.000000 94.224 -170.8329
17.250000 94.230 -171.4530
17.500000 94.226 -172.0950
17.750000 94.212 -172.7178
18.000000 94.191 -173.2875
18.250000 94.167 -173.7947
18.500000 94.145 -174.2395
18.750000 94.129 -174.6447
19.000000 94.120 -175.0414
19.250000 94.116 -175.4484
19.500000 94.114 -175.8794
19.750000 94.112 -176.3337
20.000000 94.107 -176.7977
20.299999 94.098 -177.3527
20.600000 94.087 -177.8935
20.900000 94.076 -178.4215
21.200001 94.065 -178.9487
21.400000 94.057 -179.3055
21.799999 94.034 179.9769
22.000000 94.018 179.6276
22.400000 93.979 178.9807
22.700001 93.946 178.5643
23.000000 93.915 178.2069
23.299999 93.890 177.8899
23.600000 93.871 177.5840
24.000000 93.855 177.1471
24.299999 93.843 176.7830
24.700001 93.824 176.2567
25.000000 93.805 175.8495
25.400000 93.773 175.3129
25.799999 93.737 174.7961
26.200001 93.700 174.2998
26.500000 93.672 173.9375
26.900000 93.636 173.4595
27.200001 93.610 173.0964
27.600000 93.577 172.5928
28.000000 93.541 172.0644
28.500000 93.486 171.4069
29.000000 93.423 170.8407
29.500000 93.367 170.4111
30.000000 93.333 170.0381
30.400000 93.321 169.6871
30.700001 93.314 169.3666
31.100000 93.296 168.8850
31.500000 93.263 168.4168
32.000000 93.214 167.9589
32.500000 93.174 167.6397
33.000000 93.154 167.3128
33.500000 93.138 166.8634
34.000000 93.104 166.3448
34.500000 93.048 165.9036
35.000000 92.992 165.6021
35.500000 92.951 165.3533
36.000000 92.922 165.0338
36.500000 92.888 164.6209
37.000000 92.842 164.1843
37.500000 92.790 163.7775
38.200001 92.715 163.2436
38.700001 92.658 162.8925
39.500000 92.570 162.4798
40.000000 92.534 162.2786
40.599998 92.506 161.9593
41.200001 92.474 161.5356
41.799999 92.430 161.1204
42.500000 92.377 160.7237
43.099998 92.337 160.3850
43.700001 92.291 160.0100
44.400002 92.224 159.6022
45.000000 92.161 159.3228
45.500000 92.110 159.1295
46.200001 92.047 158.8798
46.799999 92.001 158.6234
47.500000 91.947 158.1980
48.200001 91.872 157.6953
48.700001 91.804 157.3912
49.400002 91.709 157.1212
50.000000 91.642 156.9839
50.799999 91.577 156.8062
51.500000 91.534 156.6102
52.200001 91.498 156.3854
53.000000 91.460 156.0980
53.799999 91.419 155.7789
54.500000 91.375 155.5138
55.200001 91.328 155.3012
56.000000 91.276 155.0920
57.000000 91.209 154.8065
58.000000 91.133 154.5465
59.000000 91.064 154.3129
60.000000 91.001 153.9888
60.799999 90.940 153.6955
61.500000 90.886 153.5032
62.200001 90.844 153.3398
63.000000 90.807 153.0248
64.000000 90.718 152.4981
65.000000 90.585 152.4424
66.000000 90.534 152.7995
67.000000 90.558 152.6255
68.000000 90.516 151.9227
69.000000 90.397 151.4651
70.000000 90.285 151.3816
71.000000 90.203 151.3467
72.000000 90.125 151.2596
73.000000 90.042 151.2290
74.000000 89.972 151.2611
75.000000 89.917 151.1571
76.199997 89.817 150.8556
77.500000 89.691 150.7406
78.800003 89.581 150.5863
80.000000 89.470 150.5822
81.199997 89.402 150.7303
82.500000 89.328 150.6012
83.800003 89.164 150.9718
85.000000 89.095 152.0295
86.199997 89.111 152.4679
87.500000 89.021 152.4745
88.500000 88.939 152.9254
90.000000 88.965 153.0140
91.199997 88.930 152.1131
92.500000 88.801 151.6849
93.800003 88.804 151.9665
95.000000 88.909 151.7670
96.199997 88.979 151.2818
97.500000 89.003 151.0762
98.800003 89.055 151.0989
100.000000 89.056 150.5548
101.500000 88.866 150.1597
103.000000 88.683 150.4531
104.400002 88.574 150.5472
106.000000 88.477 150.3346
107.500000 88.393 150.0625
109.000000 88.317 149.9052
110.599998 88.239 149.8393
112.000000 88.165 149.8284
113.800003 88.065 149.8276
115.000000 88.001 149.8095
117.199997 87.891 149.7544
118.000000 87.853 149.7454
120.599998 87.735 149.8265
122.000000 87.676 149.8984
124.099998 87.585 149.9766
125.000000 87.542 150.0070
126.500000 87.466 150.0950
128.000000 87.394 150.2232
131.500000 87.242 150.3396
132.000000 87.218 150.3516
134.000000 87.116 150.5003
136.000000 87.011 150.7777
138.000000 86.896 151.1641
140.000000 86.777 151.5799
143.000000 86.613 152.4040
145.000000 86.556 153.1523
147.500000 86.555 154.1368
150.000000 86.613 154.9900
152.500000 86.709 155.4119
155.000000 86.791 155.2504
157.500000 86.816 154.7518
160.000000 86.791 154.2535
162.500000 86.733 153.8648
165.000000 86.657 153.6087
167.500000 86.576 153.4802
170.000000 86.501 153.4521
172.500000 86.426 153.4550
175.000000 86.343 153.4930
177.500000 86.259 153.5715
180.000000 86.177 153.6917
182.500000 86.100 153.8759
185.000000 86.028 154.1023
187.500000 85.959 154.3510
190.000000 85.896 154.6403
192.500000 85.842 154.9731
195.000000 85.801 155.3250
197.500000 85.775 155.6459
200.000000 85.763 155.8827
203.000000 85.748 156.0352
206.000000 85.722 156.0861
209.000000 85.686 156.0818
212.000000 85.639 156.0886
214.000000 85.603 156.1177
218.000000 85.526 156.2144
220.000000 85.488 156.2809
224.000000 85.410 156.4633
227.000000 85.352 156.6360
230.000000 85.297 156.8334
233.000000 85.245 157.0424
236.000000 85.198 157.2435
240.000000 85.140 157.4887
243.000000 85.096 157.6697
247.000000 85.037 157.9266
250.000000 84.993 158.1226
254.000000 84.937 158.3578
258.000000 84.880 158.5939
262.000000 84.827 158.8683
265.000000 84.787 159.0787
269.000000 84.732 159.3678
272.000000 84.694 159.6038
276.000000 84.648 159.9380
280.000000 84.609 160.2749
285.000000 84.574 160.6478
290.000000 84.539 160.9358
295.000000 84.500 161.1825
300.000000 84.461 161.4192
304.000000 84.425 161.6073
307.000000 84.394 161.7486
311.000000 84.351 161.9412
315.000000 84.310 162.1476
320.000000 84.260 162.4362
325.000000 84.209 162.7261
330.000000 84.160 163.0221
335.000000 84.114 163.3373
340.000000 84.072 163.6557
345.000000 84.032 163.9608
350.000000 83.993 164.2961
355.000000 83.957 164.6639
360.000000 83.927 165.0084
365.000000 83.904 165.3154
370.000000 83.883 165.5431
375.000000 83.859 165.7243
382.000000 83.813 166.0043
387.000000 83.774 166.2173
395.000000 83.704 166.5523
400.000000 83.662 166.7921
406.000000 83.611 167.1173
412.000000 83.562 167.4936
418.000000 83.518 167.9100
425.000000 83.469 168.3928
431.000000 83.434 168.7936
437.000000 83.400 169.1887
444.000000 83.362 169.6496
450.000000 83.335 170.0403
455.000000 83.310 170.3572
462.000000 83.276 170.7930
468.000000 83.251 171.1682
475.000000 83.228 171.6006
482.000000 83.203 172.0269
487.000000 83.185 172.3243
494.000000 83.160 172.7368
500.000000 83.141 173.0905
508.000000 83.116 173.5600
515.000000 83.094 173.9636
522.000000 83.074 174.3694
530.000000 83.053 174.8422
538.000000 83.031 175.3032
545.000000 83.013 175.6941
552.000000 82.996 176.0898
560.000000 82.976 176.5594
570.000000 82.951 177.1335
580.000000 82.929 177.7063
590.000000 82.910 178.2918
600.000000 82.892 178.8638
608.000000 82.877 179.3203
615.000000 82.865 179.7191
622.000000 82.854 -179.8786
630.000000 82.844 -179.4113
640.000000 82.834 -178.8309
650.000000 82.826 -178.2539
660.000000 82.818 -177.6734
670.000000 82.812 -177.0835
680.000000 82.809 -176.4969
690.000000 82.807 -175.9053
700.000000 82.807 -175.3034
710.000000 82.810 -174.7136
720.000000 82.814 -174.1278
730.000000 82.822 -173.5384
740.000000 82.831 -172.9561
750.000000 82.842 -172.3813
762.000000 82.859 -171.6856
775.000000 82.882 -170.9170
788.000000 82.909 -170.1474
800.000000 82.937 -169.4551
812.000000 82.969 -168.7793
825.000000 83.008 -168.0467
838.000000 83.052 -167.3261
850.000000 83.094 -166.6791
862.000000 83.140 -166.0457
875.000000 83.194 -165.3748
885.000000 83.239 -164.8676
900.000000 83.310 -164.1304
912.000000 83.369 -163.5632
925.000000 83.434 -162.9668
938.000000 83.503 -162.4002
950.000000 83.569 -161.9055
962.000000 83.638 -161.4209
975.000000 83.713 -160.9199
988.000000 83.789 -160.4672
1000.000000 83.862 -160.0786
1015.000000 83.953 -159.6109
1030.000000 84.043 -159.1816
1044.000000 84.126 -158.8174
1060.000000 84.221 -158.4236
1075.000000 84.309 -158.0748
1090.000000 84.395 -157.7589
1106.000000 84.485 -157.4574
1120.000000 84.562 -157.2112
1138.000000 84.659 -156.9165
1150.000000 84.721 -156.7348
1172.000000 84.832 -156.4199
1180.000000 84.870 -156.3094
1206.000000 84.990 -155.9430
1220.000000 85.053 -155.7441
1241.000000 85.144 -155.4449
1250.000000 85.182 -155.3074
1265.000000 85.243 -155.0687
1280.000000 85.305 -154.8271
1315.000000 85.451 -154.2114
1320.000000 85.473 -154.1143
1340.000000 85.563 -153.7066
1360.000000 85.661 -153.2728
1380.000000 85.769 -152.8266
1400.000000 85.887 -152.3839
1430.000000 86.086 -151.7717
1450.000000 86.235 -151.4380
1475.000000 86.436 -151.1642
1500.000000 86.647 -151.0852
1525.000000 86.856 -151.2201
1550.000000 87.051 -151.5665
1575.000000 87.223 -152.0854
1600.000000 87.365 -152.7032
1625.000000 87.477 -153.3452
1650.000000 87.560 -153.9492
1675.000000 87.620 -154.4668
1700.000000 87.664 -154.8734
1725.000000 87.698 -155.1541
1750.000000 87.729 -155.2993
1775.000000 87.762 -155.3176
1800.000000 87.802 -155.2288
1825.000000 87.854 -155.0465
1850.000000 87.919 -154.7852
1875.000000 88.000 -154.4713
1900.000000 88.099 -154.1340
1925.000000 88.216 -153.7941
1950.000000 88.352 -153.4751
1975.000000 88.506 -153.2023
2000.000000 88.676 -152.9973
2030.000000 88.903 -152.8761
2060.000000 89.151 -152.9224
2090.000000 89.415 -153.1637
2120.000000 89.689 -153.6342
2140.000000 89.875 -154.0905
2180.000000 90.245 -155.3623
2200.000000 90.423 -156.1795
2240.000000 90.754 -158.1797
2270.000000 90.970 -159.9772
2300.000000 91.149 -161.9897
2330.000000 91.284 -164.1683
2360.000000 91.373 -166.4570
2400.000000 91.414 -169.5683
2430.000000 91.387 -171.8669
2470.000000 91.281 -174.7738
2500.000000 91.156 -176.7713
2540.000000 90.939 -179.1173
2580.000000 90.682 178.9485
2620.000000 90.403 177.4350
2650.000000 90.190 176.5686
2690.000000 89.908 175.7437
2720.000000 89.703 175.3487
2760.000000 89.446 175.0818
2800.000000 89.210 175.0751
2850.000000 88.949 175.3646
2900.000000 88.731 175.9041
2950.000000 88.561 176.6393
3000.000000 88.441 177.5116
3040.000000 88.382 178.2531
3070.000000 88.359 178.8088
3110.000000 88.355 179.5242
3150.000000 88.382 -179.8214
3200.000000 88.453 -179.1329
3250.000000 88.563 -178.6368
3300.000000 88.706 -178.3936
3350.000000 88.873 -178.4451
3400.000000 89.056 -178.8380
3450.000000 89.241 -179.6172
3500.000000 89.415 179.2004
3550.000000 89.563 177.6273
3600.000000 89.669 175.6928
3650.000000 89.719 173.4613
3700.000000 89.701 171.0316
3750.000000 89.612 168.5073
3820.000000 89.362 164.9208
3870.000000 89.081 162.3856
3950.000000 88.386 158.8912
4000.000000 87.788 157.7268
4060.000000 86.975 158.1064
4120.000000 86.205 160.7100
4180.000000 85.666 165.1708
4250.000000 85.514 171.3671
4310.000000 85.803 176.1448
4370.000000 86.372 179.4622
4440.000000 87.208 -179.1370
4500.000000 87.924 179.8171
4550.000000 88.439 177.4857
4620.000000 88.942 172.4645
4680.000000 89.118 167.1349
4750.000000 89.004 160.6047
4820.000000 88.576 154.6195
4870.000000 88.116 151.0560
4940.000000 87.326 147.3335
5000.000000 86.573 145.3542
5080.000000 85.549 144.2973
5150.000000 84.687 144.5988
5220.000000 83.886 145.7946
5300.000000 83.065 148.0189
5380.000000 82.355 150.9365
5450.000000 81.831 153.9097
5520.000000 81.400 157.1596
5600.000000 81.021 161.0773
5700.000000 80.727 166.0304
5800.000000 80.629 170.7047
5900.000000 80.704 174.6616
6000.000000 80.895 177.4230
6080.000000 81.056 178.5767
6150.000000 81.143 178.8791
6220.000000 81.137 178.7720
6300.000000 80.995 178.6375
6400.000000 80.659 179.2462
6500.000000 80.262 -178.7867
6600.000000 79.935 -175.5732
6700.000000 79.761 -171.5664
6800.000000 79.774 -167.2683
6900.000000 79.975 -163.1000
7000.000000 80.350 -159.4038
7100.000000 80.873 -156.4694
7200.000000 81.511 -154.5855
7300.000000 82.215 -153.9745
7400.000000 82.934 -154.6827
7500.000000 83.642 -156.7577
7620.000000 84.395 -161.4078
7750.000000 84.891 -168.9221
7880.000000 84.933 -177.5169
8000.000000 84.614 174.9064
8120.000000 84.059 168.1353
8250.000000 83.279 161.4691
8380.000000 82.297 155.0608
8500.000000 81.104 149.6345
8620.000000 79.532 146.1263
8750.000000 77.462 146.8997
8850.000000 75.851 151.5582
9000.000000 74.138 163.0678
9120.000000 73.715 172.3408
9250.000000 73.879 179.2487
9380.000000 74.154 -177.6393
9500.000000 74.228 -177.0800
9620.000000 74.052 -177.3468
9750.000000 73.615 -177.2631
9880.000000 73.033 -176.0411
10000.000000 72.477 -173.8060
10150.000000 71.869 -169.8453
10300.000000 71.433 -165.0972
10440.000000 71.218 -160.4187
10600.000000 71.204 -155.3157
10750.000000 71.397 -151.1846
10900.000000 71.765 -148.0199
11060.000000 72.316 -146.0999
11200.000000 72.892 -146.0171
11380.000000 73.668 -148.6656
11500.000000 74.114 -152.4889
11720.000000 74.469 -163.8674
11800.000000 74.369 -169.0315
12060.000000 72.994 174.6433
12200.000000 71.671 168.4202
12410.000000 69.284 164.0189
12500.000000 68.221 163.7944
12650.000000 66.506 165.1708
12800.000000 64.925 168.1725
13150.000000 61.925 178.7864
13200.000000 61.573 -179.4529
13400.000000 60.335 -172.0840
13600.000000 59.372 -164.4388
13800.000000 58.639 -156.9616
14000.000000 58.092 -149.7806
14300.000000 57.606 -139.5128
14500.000000 57.471 -132.9415
14750.000000 57.541 -125.3175
15000.000000 57.906 -118.4322
15250.000000 58.652 -112.5876
15500.000000 59.730 -108.8351
15750.000000 60.922 -107.7227
16000.000000 62.202 -107.8340
16250.000000 64.002 -108.2364
16500.000000 66.671 -111.0102
16750.000000 70.018 -119.8278
17000.000000 73.321 -139.1220
17250.000000 75.638 -171.2914
17500.000000 76.424 148.1740
17750.000000 75.723 107.7760
18000.000000 74.003 72.4619
18250.000000 71.816 42.1748
18500.000000 69.588 14.8511
18750.000000 67.596 -12.1340
19000.000000 65.913 -41.5498
19250.000000 64.383 -75.3911
19500.000000 62.757 -113.8164
19750.000000 60.985 -152.3408
