* Measurement data measured by REW V5.20.9
* Source: USB-C to 3.5mm Headphone Jack Adapter, USB-C to 3.5mm Headphone Jack Adapter, 0, volume: 0.138
* Format: 256k Log Swept Sine, 1 sweep at -12.0 dBFS with no timing reference
* Dated: 11/03/2023 10:13:40 AM
* REW Settings:
*  C-weighting compensation: Off
*  Target level: 75.0 dB
* Note: ; 
* Measurement: Gaea R
* Smoothing: 1/24 octave
* Frequency Step: 1/48 octave
* Start Frequency: 1.000 Hz
*
* Freq(Hz) SPL(dB) Phase(degrees)
1.000000 74.978 41.6045
1.015000 75.107 39.3814
1.030000 75.247 37.2514
1.044000 75.387 35.3330
1.060000 75.558 33.2185
1.075000 75.728 31.3075
1.090000 75.906 29.4613
1.106000 76.103 27.5590
1.120000 76.282 25.9472
1.138000 76.519 23.9420
1.150000 76.681 22.6438
1.172000 76.982 20.3362
1.180000 77.093 19.5183
1.206000 77.457 16.9284
1.220000 77.653 15.5717
1.241000 77.946 13.5772
1.250000 78.070 12.7350
1.265000 78.276 11.3448
1.280000 78.477 9.9679
1.315000 78.929 6.7840
1.320000 78.991 6.3302
1.340000 79.231 4.5119
1.360000 79.460 2.6972
1.380000 79.685 0.9255
1.400000 79.908 -0.8019
1.430000 80.238 -3.3132
1.450000 80.454 -4.9361
1.475000 80.721 -6.9096
1.500000 80.983 -8.8244
1.525000 81.241 -10.6833
1.550000 81.494 -12.4890
1.575000 81.742 -14.2442
1.600000 81.985 -15.9516
1.625000 82.223 -17.6142
1.650000 82.456 -19.2345
1.675000 82.684 -20.8153
1.700000 82.906 -22.3487
1.725000 83.123 -23.8093
1.750000 83.334 -25.2021
1.775000 83.539 -26.5343
1.800000 83.740 -27.8128
1.825000 83.935 -29.0445
1.850000 84.126 -30.2366
1.875000 84.313 -31.3961
1.900000 84.495 -32.5298
1.925000 84.674 -33.6449
1.950000 84.849 -34.7484
1.975000 85.020 -35.8471
2.000000 85.188 -36.9483
2.030000 85.386 -38.2789
2.060000 85.577 -39.5903
2.090000 85.762 -40.8744
2.120000 85.940 -42.1325
2.140000 86.056 -42.9574
2.180000 86.281 -44.5759
2.200000 86.390 -45.3702
2.240000 86.601 -46.9310
2.270000 86.756 -48.0787
2.300000 86.906 -49.2082
2.330000 87.053 -50.3209
2.360000 87.198 -51.4181
2.400000 87.384 -52.8514
2.430000 87.518 -53.9025
2.470000 87.690 -55.2732
2.500000 87.814 -56.2787
2.540000 87.974 -57.5901
2.580000 88.128 -58.8691
2.620000 88.278 -60.1169
2.650000 88.387 -61.0328
2.690000 88.529 -62.2283
2.720000 88.633 -63.1022
2.760000 88.766 -64.2308
2.800000 88.893 -65.3224
2.850000 89.045 -66.6428
2.900000 89.190 -67.9236
2.950000 89.330 -69.1750
3.000000 89.465 -70.4069
3.040000 89.570 -71.3848
3.070000 89.646 -72.1118
3.110000 89.745 -73.0691
3.150000 89.839 -74.0109
3.200000 89.952 -75.1638
3.250000 90.061 -76.2860
3.300000 90.167 -77.3741
3.350000 90.270 -78.4244
3.400000 90.371 -79.4313
3.450000 90.467 -80.3910
3.500000 90.560 -81.3117
3.550000 90.649 -82.2021
3.600000 90.736 -83.0709
3.650000 90.822 -83.9267
3.700000 90.906 -84.7781
3.750000 90.988 -85.6236
3.820000 91.099 -86.7830
3.870000 91.176 -87.5933
3.950000 91.296 -88.8574
4.000000 91.370 -89.6267
4.060000 91.457 -90.5271
4.120000 91.543 -91.3948
4.180000 91.628 -92.2354
4.250000 91.724 -93.1933
4.310000 91.805 -94.0050
4.370000 91.885 -94.8173
4.440000 91.977 -95.7644
4.500000 92.054 -96.5681
4.550000 92.118 -97.2330
4.620000 92.205 -98.1581
4.680000 92.278 -98.9469
4.750000 92.362 -99.8628
4.820000 92.443 -100.7709
4.870000 92.501 -101.4158
4.940000 92.579 -102.3156
5.000000 92.644 -103.0857
5.080000 92.727 -104.1140
5.150000 92.797 -105.0142
5.220000 92.864 -105.9133
5.300000 92.938 -106.9375
5.380000 93.008 -107.9562
5.450000 93.065 -108.8447
5.520000 93.119 -109.7320
5.600000 93.177 -110.7398
5.700000 93.244 -111.9817
5.800000 93.305 -113.2009
5.900000 93.359 -114.4024
6.000000 93.407 -115.5785
6.080000 93.442 -116.4961
6.150000 93.470 -117.2848
6.220000 93.495 -118.0600
6.300000 93.521 -118.9260
6.400000 93.551 -119.9734
6.500000 93.578 -120.9797
6.600000 93.602 -121.9486
6.700000 93.625 -122.8828
6.800000 93.648 -123.7825
6.900000 93.670 -124.6454
7.000000 93.691 -125.4784
7.100000 93.714 -126.2877
7.200000 93.739 -127.0673
7.300000 93.764 -127.8232
7.400000 93.790 -128.5659
7.500000 93.817 -129.2960
7.620000 93.852 -130.1527
7.750000 93.891 -131.0689
7.880000 93.930 -131.9760
8.000000 93.967 -132.8028
8.120000 94.002 -133.6204
8.250000 94.039 -134.4977
8.380000 94.075 -135.3594
8.500000 94.106 -136.1367
8.620000 94.135 -136.8987
8.750000 94.166 -137.6996
8.850000 94.188 -138.2958
9.000000 94.221 -139.1607
9.120000 94.248 -139.8285
9.250000 94.277 -140.5245
9.380000 94.307 -141.2003
9.500000 94.337 -141.8121
9.620000 94.367 -142.4091
9.750000 94.401 -143.0514
9.880000 94.436 -143.6941
10.000000 94.468 -144.2857
10.150000 94.506 -145.0305
10.300000 94.543 -145.7826
10.440000 94.574 -146.4824
10.600000 94.603 -147.2818
10.750000 94.626 -148.0170
10.900000 94.642 -148.7268
11.060000 94.654 -149.4530
11.200000 94.661 -150.0451
11.380000 94.665 -150.7517
11.500000 94.668 -151.1841
11.720000 94.675 -151.8979
11.800000 94.679 -152.1405
12.060000 94.699 -152.8624
12.200000 94.715 -153.2393
12.410000 94.746 -153.7963
12.500000 94.761 -154.0451
12.650000 94.788 -154.4704
12.800000 94.815 -154.9141
13.150000 94.874 -156.0271
13.200000 94.881 -156.1919
13.400000 94.906 -156.8598
13.600000 94.925 -157.5166
13.800000 94.939 -158.1556
14.000000 94.949 -158.7597
14.300000 94.963 -159.6050
14.500000 94.975 -160.1371
14.750000 94.994 -160.7835
15.000000 95.018 -161.4385
15.250000 95.043 -162.1139
15.500000 95.067 -162.8136
15.750000 95.087 -163.5304
16.000000 95.102 -164.2425
16.250000 95.113 -164.9351
16.500000 95.120 -165.5974
16.750000 95.127 -166.2245
17.000000 95.135 -166.8251
17.250000 95.145 -167.4085
17.500000 95.155 -167.9835
17.750000 95.166 -168.5575
18.000000 95.175 -169.1286
18.250000 95.183 -169.6922
18.500000 95.187 -170.2429
18.750000 95.190 -170.7740
19.000000 95.191 -171.2841
19.250000 95.192 -171.7746
19.500000 95.193 -172.2482
19.750000 95.193 -172.7100
20.000000 95.194 -173.1643
20.299999 95.196 -173.7046
20.600000 95.196 -174.2455
20.900000 95.195 -174.7924
21.200001 95.190 -175.3466
21.400000 95.184 -175.7172
21.799999 95.163 -176.4315
22.000000 95.148 -176.7564
22.400000 95.116 -177.3032
22.700001 95.097 -177.6066
23.000000 95.093 -177.8422
23.299999 95.109 -178.0653
23.600000 95.145 -178.3492
24.000000 95.210 -178.9304
24.299999 95.255 -179.5346
24.700001 95.289 179.5188
25.000000 95.291 178.8176
25.400000 95.274 178.0400
25.799999 95.260 177.4938
26.200001 95.276 177.0665
26.500000 95.310 176.7048
26.900000 95.366 176.0547
27.200001 95.401 175.4345
27.600000 95.421 174.5350
28.000000 95.411 173.7018
28.500000 95.382 172.9030
29.000000 95.368 172.3038
29.500000 95.376 171.7052
30.000000 95.386 170.9991
30.400000 95.382 170.3925
30.700001 95.371 169.9504
31.100000 95.351 169.4063
31.500000 95.328 168.9171
32.000000 95.302 168.3600
32.500000 95.280 167.8313
33.000000 95.265 167.2934
33.500000 95.250 166.7170
34.000000 95.229 166.1161
34.500000 95.201 165.5503
35.000000 95.176 165.0618
35.500000 95.166 164.6088
36.000000 95.171 164.0917
36.500000 95.178 163.4547
37.000000 95.176 162.7382
37.500000 95.161 162.0254
38.200001 95.134 161.1153
38.700001 95.120 160.5132
39.500000 95.114 159.5221
40.000000 95.113 158.8206
40.599998 95.093 157.9117
41.200001 95.044 157.1016
41.799999 94.988 156.5565
42.500000 94.962 156.1442
43.099998 94.976 155.6887
43.700001 94.988 155.0173
44.400002 94.969 154.1091
45.000000 94.923 153.3981
45.500000 94.878 152.9305
46.200001 94.836 152.4230
46.799999 94.833 151.8748
47.500000 94.820 150.8476
48.200001 94.732 149.7685
48.700001 94.643 149.3336
49.400002 94.575 149.1641
50.000000 94.594 148.9406
50.799999 94.643 148.1078
51.500000 94.645 147.1756
52.200001 94.619 146.3476
53.000000 94.580 145.5693
53.799999 94.546 144.9507
54.500000 94.528 144.4260
55.200001 94.508 143.8270
56.000000 94.468 143.1506
57.000000 94.419 142.3917
58.000000 94.380 141.5562
59.000000 94.337 140.6273
60.000000 94.278 139.6710
60.799999 94.221 139.0262
61.500000 94.185 138.5573
62.200001 94.163 138.0648
63.000000 94.142 137.4031
64.000000 94.098 136.5033
65.000000 94.036 135.6299
66.000000 93.963 134.8677
67.000000 93.899 134.2034
68.000000 93.847 133.5345
69.000000 93.796 132.8512
70.000000 93.746 132.2040
71.000000 93.701 131.5355
72.000000 93.649 130.8445
73.000000 93.596 130.1696
74.000000 93.547 129.4360
75.000000 93.490 128.6656
76.199997 93.419 127.7950
77.500000 93.352 126.8956
78.800003 93.289 126.0368
80.000000 93.234 125.2837
81.199997 93.174 124.5088
82.500000 93.102 123.6740
83.800003 93.023 122.8069
85.000000 92.948 122.0741
86.199997 92.891 121.3840
87.500000 92.839 120.5604
88.500000 92.787 119.9222
90.000000 92.697 119.1124
91.199997 92.629 118.4995
92.500000 92.553 117.7831
93.800003 92.475 117.0341
95.000000 92.410 116.3577
96.199997 92.356 115.7217
97.500000 92.315 115.0691
98.800003 92.285 114.3602
100.000000 92.234 113.5666
101.500000 92.114 112.7431
103.000000 92.001 112.1377
104.400002 91.916 111.5080
106.000000 91.831 110.6628
107.500000 91.748 109.8676
109.000000 91.666 109.1656
110.599998 91.582 108.4970
112.000000 91.508 107.9079
113.800003 91.405 107.1102
115.000000 91.333 106.5725
117.199997 91.202 105.6260
118.000000 91.157 105.2986
120.599998 91.015 104.2669
122.000000 90.939 103.7142
124.099998 90.824 102.8945
125.000000 90.775 102.5567
126.500000 90.696 102.0049
128.000000 90.620 101.4460
131.500000 90.427 100.2433
132.000000 90.398 100.0901
134.000000 90.286 99.4865
136.000000 90.173 98.8831
138.000000 90.067 98.2797
140.000000 89.968 97.7144
143.000000 89.833 96.9553
145.000000 89.744 96.4408
147.500000 89.644 95.7532
150.000000 89.558 95.0353
152.500000 89.475 94.3780
155.000000 89.383 93.7308
157.500000 89.283 93.0245
160.000000 89.181 92.2702
162.500000 89.081 91.5156
165.000000 88.974 90.7946
167.500000 88.859 90.1736
170.000000 88.739 89.6324
172.500000 88.616 89.1534
175.000000 88.495 88.7200
177.500000 88.374 88.3547
180.000000 88.257 88.0896
182.500000 88.151 87.9442
185.000000 88.060 87.8877
187.500000 87.989 87.8362
190.000000 87.939 87.7380
192.500000 87.897 87.6299
195.000000 87.840 87.4606
197.500000 87.756 87.2136
200.000000 87.702 87.0500
203.000000 87.731 86.7833
206.000000 87.774 86.4112
209.000000 87.796 85.9441
212.000000 87.812 85.1950
214.000000 87.812 84.5791
218.000000 87.768 83.3485
220.000000 87.731 82.7665
224.000000 87.638 81.6810
227.000000 87.557 80.9645
230.000000 87.478 80.3318
233.000000 87.400 79.7773
236.000000 87.321 79.2771
240.000000 87.220 78.6547
243.000000 87.148 78.2290
247.000000 87.051 77.6924
250.000000 86.984 77.3193
254.000000 86.905 76.8689
258.000000 86.829 76.4343
262.000000 86.755 76.0139
265.000000 86.703 75.7198
269.000000 86.636 75.3486
272.000000 86.587 75.0768
276.000000 86.524 74.7302
280.000000 86.465 74.3985
285.000000 86.396 74.0211
290.000000 86.337 73.7226
295.000000 86.295 73.4214
300.000000 86.260 73.0332
304.000000 86.228 72.6971
307.000000 86.204 72.4467
311.000000 86.173 72.1272
315.000000 86.142 71.8355
320.000000 86.104 71.4956
325.000000 86.070 71.1590
330.000000 86.040 70.8239
335.000000 86.011 70.4977
340.000000 85.986 70.1802
345.000000 85.964 69.8698
350.000000 85.943 69.5609
355.000000 85.925 69.2406
360.000000 85.908 68.9290
365.000000 85.893 68.6226
370.000000 85.879 68.3239
375.000000 85.867 68.0377
382.000000 85.852 67.6400
387.000000 85.842 67.3572
395.000000 85.828 66.9233
400.000000 85.822 66.6649
406.000000 85.815 66.3576
412.000000 85.811 66.0665
418.000000 85.809 65.7914
425.000000 85.813 65.4713
431.000000 85.820 65.1786
437.000000 85.829 64.8731
444.000000 85.843 64.5281
450.000000 85.854 64.2266
455.000000 85.862 63.9555
462.000000 85.874 63.5799
468.000000 85.886 63.2654
475.000000 85.900 62.8820
482.000000 85.913 62.4727
487.000000 85.920 62.1732
494.000000 85.924 61.7572
500.000000 85.923 61.4107
508.000000 85.921 60.9649
515.000000 85.920 60.5878
522.000000 85.916 60.2263
530.000000 85.909 59.8415
538.000000 85.900 59.4822
545.000000 85.893 59.1829
552.000000 85.886 58.9005
560.000000 85.879 58.5933
570.000000 85.867 58.2339
580.000000 85.854 57.9079
590.000000 85.841 57.6028
600.000000 85.826 57.3250
608.000000 85.814 57.1198
615.000000 85.803 56.9524
622.000000 85.792 56.8057
630.000000 85.779 56.6615
640.000000 85.765 56.4982
650.000000 85.750 56.3632
660.000000 85.733 56.2695
670.000000 85.716 56.2048
680.000000 85.699 56.1528
690.000000 85.684 56.1331
700.000000 85.671 56.1505
710.000000 85.658 56.1901
720.000000 85.647 56.2554
730.000000 85.637 56.3539
740.000000 85.629 56.4805
750.000000 85.622 56.6308
762.000000 85.617 56.8392
775.000000 85.613 57.1149
788.000000 85.615 57.4430
800.000000 85.621 57.7780
812.000000 85.632 58.1417
825.000000 85.648 58.5687
838.000000 85.671 59.0314
850.000000 85.697 59.4837
862.000000 85.727 59.9549
875.000000 85.766 60.4881
885.000000 85.801 60.9153
900.000000 85.863 61.5710
912.000000 85.919 62.1053
925.000000 85.987 62.6908
938.000000 86.060 63.2852
950.000000 86.135 63.8418
962.000000 86.216 64.3998
975.000000 86.311 64.9913
988.000000 86.412 65.5699
1000.000000 86.511 66.0968
1015.000000 86.641 66.7469
1030.000000 86.781 67.3707
1044.000000 86.918 67.9305
1060.000000 87.082 68.5436
1075.000000 87.245 69.0812
1090.000000 87.415 69.5800
1106.000000 87.602 70.0724
1120.000000 87.771 70.4697
1138.000000 87.993 70.9238
1150.000000 88.145 71.1885
1172.000000 88.429 71.5937
1180.000000 88.535 71.7141
1206.000000 88.886 72.0051
1220.000000 89.078 72.0985
1241.000000 89.369 72.1529
1250.000000 89.494 72.1417
1265.000000 89.702 72.0744
1280.000000 89.910 71.9491
1315.000000 90.393 71.4495
1320.000000 90.461 71.3544
1340.000000 90.731 70.9111
1360.000000 90.996 70.3714
1380.000000 91.253 69.7428
1400.000000 91.502 69.0327
1430.000000 91.858 67.8336
1450.000000 92.082 66.9546
1475.000000 92.349 65.7869
1500.000000 92.601 64.5422
1525.000000 92.839 63.1985
1550.000000 93.057 61.7458
1575.000000 93.247 60.2084
1600.000000 93.407 58.6380
1625.000000 93.539 57.0843
1650.000000 93.645 55.5876
1675.000000 93.731 54.1687
1700.000000 93.800 52.8321
1725.000000 93.856 51.5779
1750.000000 93.901 50.4079
1775.000000 93.938 49.3256
1800.000000 93.969 48.3289
1825.000000 93.997 47.4102
1850.000000 94.023 46.5614
1875.000000 94.050 45.7723
1900.000000 94.077 45.0263
1925.000000 94.104 44.3079
1950.000000 94.130 43.6119
1975.000000 94.154 42.9432
2000.000000 94.175 42.3102
2030.000000 94.197 41.6065
2060.000000 94.219 40.9661
2090.000000 94.242 40.3822
2120.000000 94.269 39.8454
2140.000000 94.288 39.5107
2180.000000 94.334 38.8866
2200.000000 94.359 38.5910
2240.000000 94.416 38.0200
2270.000000 94.464 37.5998
2300.000000 94.516 37.1818
2330.000000 94.573 36.7631
2360.000000 94.633 36.3366
2400.000000 94.718 35.7451
2430.000000 94.785 35.2760
2470.000000 94.876 34.6096
2500.000000 94.946 34.0764
2540.000000 95.038 33.3193
2580.000000 95.128 32.5164
2620.000000 95.215 31.6674
2650.000000 95.279 31.0000
2690.000000 95.359 30.0663
2720.000000 95.415 29.3324
2760.000000 95.481 28.3081
2800.000000 95.534 27.2399
2850.000000 95.579 25.8821
2900.000000 95.599 24.5554
2950.000000 95.597 23.3132
3000.000000 95.580 22.1813
3040.000000 95.559 21.3568
3070.000000 95.542 20.7838
3110.000000 95.516 20.0768
3150.000000 95.490 19.4276
3200.000000 95.457 18.6881
3250.000000 95.426 18.0226
3300.000000 95.399 17.4162
3350.000000 95.375 16.8583
3400.000000 95.356 16.3359
3450.000000 95.340 15.8391
3500.000000 95.327 15.3636
3550.000000 95.316 14.9019
3600.000000 95.307 14.4538
3650.000000 95.298 14.0251
3700.000000 95.292 13.6188
3750.000000 95.288 13.2325
3820.000000 95.289 12.7180
3870.000000 95.296 12.3589
3950.000000 95.318 11.7756
4000.000000 95.340 11.3864
4060.000000 95.372 10.8755
4120.000000 95.410 10.3110
4180.000000 95.452 9.6827
4250.000000 95.505 8.8577
4310.000000 95.551 8.0637
4370.000000 95.595 7.1802
4440.000000 95.642 6.0264
4500.000000 95.673 4.9271
4550.000000 95.690 3.9327
4620.000000 95.698 2.4249
4680.000000 95.684 1.0362
4750.000000 95.639 -0.6655
4820.000000 95.558 -2.4149
4870.000000 95.477 -3.6673
4940.000000 95.328 -5.3853
5000.000000 95.168 -6.7855
5080.000000 94.912 -8.4745
5150.000000 94.654 -9.7239
5220.000000 94.371 -10.7200
5300.000000 94.027 -11.5194
5380.000000 93.676 -11.9410
5450.000000 93.374 -12.0148
5520.000000 93.085 -11.8477
5600.000000 92.777 -11.4117
5700.000000 92.436 -10.5969
5800.000000 92.145 -9.6158
5900.000000 91.895 -8.5568
6000.000000 91.677 -7.4512
6080.000000 91.521 -6.5350
6150.000000 91.395 -5.7051
6220.000000 91.281 -4.8367
6300.000000 91.167 -3.7840
6400.000000 91.055 -2.3793
6500.000000 90.984 -0.9043
6600.000000 90.962 0.5740
6700.000000 90.996 1.9694
6800.000000 91.087 3.1648
6900.000000 91.232 4.0095
7000.000000 91.416 4.3386
7100.000000 91.607 3.9745
7200.000000 91.751 2.7906
7300.000000 91.760 0.9598
7400.000000 91.564 -0.6796
7500.000000 91.224 -0.8817
7620.000000 90.969 1.3120
7750.000000 91.279 4.1495
7880.000000 91.983 3.7737
8000.000000 92.522 -0.1549
8120.000000 92.709 -6.2406
8250.000000 92.457 -13.3815
8380.000000 91.804 -19.5336
8500.000000 90.964 -23.6348
8620.000000 90.012 -26.1232
8750.000000 88.951 -27.2117
8850.000000 88.156 -27.1343
9000.000000 87.032 -25.9155
9120.000000 86.208 -24.2294
9250.000000 85.393 -21.8829
9380.000000 84.653 -19.1437
9500.000000 84.032 -16.3589
9620.000000 83.468 -13.3899
9750.000000 82.913 -10.0085
9880.000000 82.413 -6.4642
10000.000000 81.998 -3.0623
10150.000000 81.543 1.3212
10300.000000 81.153 5.8218
10440.000000 80.849 10.0998
10600.000000 80.571 15.0710
10750.000000 80.387 19.8166
10900.000000 80.287 24.5568
11060.000000 80.274 29.4987
11200.000000 80.340 33.6644
11380.000000 80.518 38.6801
11500.000000 80.689 41.7660
11720.000000 81.101 46.9296
11800.000000 81.283 48.6450
12060.000000 81.992 53.4676
12200.000000 82.440 55.5098
12410.000000 83.185 57.7346
12500.000000 83.525 58.3464
12650.000000 84.112 58.8880
12800.000000 84.716 58.8266
13150.000000 86.142 56.2929
13200.000000 86.342 55.6619
13400.000000 87.114 52.5254
13600.000000 87.838 48.5227
13800.000000 88.519 43.7979
14000.000000 89.170 38.4467
14300.000000 90.160 29.2416
14500.000000 90.877 21.9796
14750.000000 91.826 10.7302
15000.000000 92.649 -3.9916
15250.000000 93.002 -21.7677
15500.000000 92.815 -39.1890
15750.000000 92.705 -55.0525
16000.000000 92.891 -74.6807
16250.000000 92.403 -99.1497
16500.000000 90.990 -118.4402
16750.000000 90.518 -135.8246
17000.000000 90.753 -164.5143
17250.000000 90.004 154.9863
17500.000000 87.369 114.3051
17750.000000 83.048 83.9846
18000.000000 77.926 61.9574
18250.000000 72.787 41.2437
18500.000000 67.793 10.7814
18750.000000 62.535 -68.4088
19000.000000 56.833 98.0933
19250.000000 54.283 -127.1123
19500.000000 56.230 109.4921
19750.000000 57.763 51.3859
