* Measurement data measured by REW V5.20.9
* Source: USB-C to 3.5mm Headphone Jack Adapter, USB-C to 3.5mm Headphone Jack Adapter, 0, volume: 0.138
* Format: 256k Log Swept Sine, 1 sweep at -12.0 dBFS with no timing reference
* Dated: 16/07/2022 3:39:22 PM
* REW Settings:
*  C-weighting compensation: Off
*  Target level: 75.0 dB
* Note: ; 
* Measurement: IE900 L
* Smoothing: 1/24 octave
* Frequency Step: 1/48 octave
* Start Frequency: 1.000 Hz
*
* Freq(Hz) SPL(dB) Phase(degrees)
1.000000 68.850 58.4550
1.015000 68.995 57.0737
1.030000 69.138 55.7737
1.044000 69.272 54.6268
1.060000 69.424 53.3886
1.075000 69.567 52.2921
1.090000 69.709 51.2521
1.106000 69.860 50.1987
1.120000 69.991 49.3190
1.138000 70.160 48.2378
1.150000 70.272 47.5438
1.172000 70.476 46.3162
1.180000 70.550 45.8813
1.206000 70.790 44.4964
1.220000 70.918 43.7614
1.241000 71.109 42.6600
1.250000 71.190 42.1852
1.265000 71.326 41.3855
1.280000 71.460 40.5705
1.315000 71.770 38.5775
1.320000 71.814 38.2792
1.340000 71.989 37.0441
1.360000 72.163 35.7439
1.380000 72.336 34.4103
1.400000 72.507 33.0500
1.430000 72.763 30.9715
1.450000 72.932 29.5678
1.475000 73.142 27.8023
1.500000 73.349 26.0340
1.525000 73.554 24.2733
1.550000 73.757 22.5302
1.575000 73.958 20.8150
1.600000 74.155 19.1378
1.625000 74.350 17.5089
1.650000 74.542 15.9384
1.675000 74.731 14.4365
1.700000 74.916 13.0078
1.725000 75.099 11.6388
1.750000 75.279 10.3227
1.775000 75.456 9.0534
1.800000 75.630 7.8250
1.825000 75.802 6.6312
1.850000 75.971 5.4661
1.875000 76.138 4.3236
1.900000 76.302 3.1976
1.925000 76.464 2.0821
1.950000 76.624 0.9709
1.975000 76.781 -0.1420
2.000000 76.936 -1.2625
2.030000 77.119 -2.6235
2.060000 77.298 -3.9825
2.090000 77.474 -5.3319
2.120000 77.646 -6.6705
2.140000 77.758 -7.5561
2.180000 77.979 -9.3095
2.200000 78.087 -10.1763
2.240000 78.300 -11.8885
2.270000 78.456 -13.1521
2.300000 78.610 -14.3966
2.330000 78.761 -15.6207
2.360000 78.909 -16.8230
2.400000 79.102 -18.3976
2.430000 79.243 -19.5589
2.470000 79.427 -21.0803
2.500000 79.561 -22.2005
2.540000 79.736 -23.6654
2.580000 79.906 -25.0968
2.620000 80.073 -26.4936
2.650000 80.196 -27.5179
2.690000 80.358 -28.8517
2.720000 80.477 -29.8238
2.760000 80.632 -31.0774
2.800000 80.783 -32.2889
2.850000 80.965 -33.7544
2.900000 81.144 -35.1785
2.950000 81.317 -36.5746
3.000000 81.488 -37.9563
3.040000 81.623 -39.0599
3.070000 81.723 -39.8844
3.110000 81.853 -40.9750
3.150000 81.980 -42.0527
3.200000 82.136 -43.3772
3.250000 82.289 -44.6711
3.300000 82.440 -45.9284
3.350000 82.589 -47.1435
3.400000 82.736 -48.3075
3.450000 82.880 -49.4161
3.500000 83.022 -50.4811
3.550000 83.162 -51.5152
3.600000 83.299 -52.5311
3.650000 83.435 -53.5416
3.700000 83.569 -54.5592
3.750000 83.701 -55.5842
3.820000 83.883 -57.0118
3.870000 84.011 -58.0214
3.950000 84.211 -59.6101
4.000000 84.333 -60.5810
4.060000 84.476 -61.7180
4.120000 84.617 -62.8236
4.180000 84.754 -63.9032
4.250000 84.910 -65.1380
4.310000 85.039 -66.1822
4.370000 85.165 -67.2196
4.440000 85.307 -68.4265
4.500000 85.425 -69.4534
4.550000 85.520 -70.2995
4.620000 85.649 -71.4627
4.680000 85.757 -72.4337
4.750000 85.878 -73.5312
4.820000 85.993 -74.5979
4.870000 86.073 -75.3415
4.940000 86.181 -76.3558
5.000000 86.272 -77.1997
5.080000 86.390 -78.2869
5.150000 86.490 -79.2009
5.220000 86.587 -80.0826
5.300000 86.696 -81.0545
5.380000 86.805 -81.9929
5.450000 86.901 -82.7824
5.520000 86.995 -83.5394
5.600000 87.103 -84.3756
5.700000 87.240 -85.3966
5.800000 87.380 -86.3939
5.900000 87.521 -87.3554
6.000000 87.664 -88.3121
6.080000 87.778 -89.0944
6.150000 87.879 -89.7854
6.220000 87.980 -90.4803
6.300000 88.094 -91.2831
6.400000 88.233 -92.3065
6.500000 88.367 -93.3580
6.600000 88.496 -94.4299
6.700000 88.618 -95.5093
6.800000 88.730 -96.5952
6.900000 88.833 -97.6977
7.000000 88.928 -98.7867
7.100000 89.012 -99.8341
7.200000 89.086 -100.8576
7.300000 89.152 -101.8446
7.400000 89.213 -102.7687
7.500000 89.267 -103.6223
7.620000 89.326 -104.5672
7.750000 89.392 -105.4910
7.880000 89.462 -106.2894
8.000000 89.531 -106.9474
8.120000 89.613 -107.5798
8.250000 89.716 -108.2047
8.380000 89.831 -108.8412
8.500000 89.948 -109.4948
8.620000 90.077 -110.1868
8.750000 90.217 -111.0350
8.850000 90.324 -111.7777
9.000000 90.484 -113.0113
9.120000 90.597 -114.0881
9.250000 90.705 -115.3684
9.380000 90.794 -116.7038
9.500000 90.853 -117.9387
9.620000 90.892 -119.2021
9.750000 90.912 -120.5032
9.880000 90.908 -121.7026
10.000000 90.886 -122.7245
10.150000 90.847 -123.7826
10.300000 90.791 -124.6000
10.440000 90.745 -125.1550
10.600000 90.706 -125.5037
10.750000 90.693 -125.6526
10.900000 90.718 -125.6858
11.060000 90.780 -125.6450
11.200000 90.868 -125.6990
11.380000 91.021 -125.8667
11.500000 91.132 -126.1394
11.720000 91.358 -126.9546
11.800000 91.435 -127.3449
12.060000 91.663 -128.9761
12.200000 91.758 -129.9664
12.410000 91.863 -131.5630
12.500000 91.894 -132.2165
12.650000 91.926 -133.2884
12.800000 91.945 -134.2662
13.150000 91.952 -136.0778
13.200000 91.954 -136.2819
13.400000 91.965 -136.9853
13.600000 92.000 -137.5970
13.800000 92.055 -138.1719
14.000000 92.132 -138.8161
14.300000 92.260 -140.0137
14.500000 92.339 -140.9743
14.750000 92.413 -142.3323
15.000000 92.448 -143.7207
15.250000 92.447 -145.0206
15.500000 92.420 -146.1400
15.750000 92.382 -147.0106
16.000000 92.353 -147.6610
16.250000 92.344 -148.1662
16.500000 92.360 -148.6071
16.750000 92.399 -149.0854
17.000000 92.449 -149.6578
17.250000 92.501 -150.3248
17.500000 92.548 -151.0699
17.750000 92.583 -151.8437
18.000000 92.609 -152.5972
18.250000 92.631 -153.3105
18.500000 92.652 -153.9747
18.750000 92.679 -154.6068
19.000000 92.711 -155.2399
19.250000 92.747 -155.8968
19.500000 92.785 -156.5958
19.750000 92.819 -157.3405
20.000000 92.846 -158.1122
20.299999 92.867 -159.0441
20.600000 92.876 -159.9424
20.900000 92.877 -160.7768
21.200001 92.873 -161.5374
21.400000 92.870 -162.0076
21.799999 92.866 -162.8829
22.000000 92.865 -163.2966
22.400000 92.863 -164.0821
22.700001 92.861 -164.6317
23.000000 92.860 -165.1450
23.299999 92.862 -165.6280
23.600000 92.868 -166.0978
24.000000 92.883 -166.7468
24.299999 92.894 -167.2748
24.700001 92.901 -168.0369
25.000000 92.896 -168.6242
25.400000 92.874 -169.3690
25.799999 92.843 -170.0132
26.200001 92.817 -170.5560
26.500000 92.807 -170.9360
26.900000 92.807 -171.4880
27.200001 92.812 -171.9800
27.600000 92.812 -172.7496
28.000000 92.792 -173.5869
28.500000 92.738 -174.5545
29.000000 92.677 -175.2940
29.500000 92.640 -175.8729
30.000000 92.633 -176.5134
30.400000 92.631 -177.1522
30.700001 92.621 -177.6797
31.100000 92.593 -178.3683
31.500000 92.553 -178.9647
32.000000 92.505 -179.5718
32.500000 92.468 179.8885
33.000000 92.432 179.3729
33.500000 92.398 178.9301
34.000000 92.380 178.5438
34.500000 92.384 178.0550
35.000000 92.385 177.3390
35.500000 92.350 176.5095
36.000000 92.282 175.8307
36.500000 92.220 175.4036
37.000000 92.194 175.0452
37.500000 92.190 174.5318
38.200001 92.170 173.5829
38.700001 92.137 172.9314
39.500000 92.083 172.0092
40.000000 92.042 171.4850
40.599998 91.989 171.0267
41.200001 91.959 170.7148
41.799999 91.951 170.2875
42.500000 91.911 169.6063
43.099998 91.845 169.1705
43.700001 91.790 168.8679
44.400002 91.731 168.3400
45.000000 91.641 167.8635
45.500000 91.557 167.6683
46.200001 91.480 167.5486
46.799999 91.438 167.2706
47.500000 91.368 166.9361
48.200001 91.328 166.9300
48.700001 91.357 166.8798
49.400002 91.428 166.2561
50.000000 91.440 165.3247
50.799999 91.355 164.1862
51.500000 91.232 163.6633
52.200001 91.122 163.5923
53.000000 91.059 163.6405
53.799999 91.018 163.3789
54.500000 90.957 163.0383
55.200001 90.890 162.7444
56.000000 90.818 162.3574
57.000000 90.729 161.9388
58.000000 90.692 161.4655
59.000000 90.635 160.5983
60.000000 90.522 160.0313
60.799999 90.450 159.7808
61.500000 90.386 159.5443
62.200001 90.315 159.4023
63.000000 90.260 159.3211
64.000000 90.226 158.8377
65.000000 90.133 157.9354
66.000000 89.971 157.3878
67.000000 89.855 157.3891
68.000000 89.822 157.3178
69.000000 89.793 156.9576
70.000000 89.734 156.6161
71.000000 89.663 156.4039
72.000000 89.590 156.2575
73.000000 89.519 156.1540
74.000000 89.464 156.0401
75.000000 89.416 155.7635
76.199997 89.327 155.3856
77.500000 89.221 155.2139
78.800003 89.103 155.0883
80.000000 88.999 155.2024
81.199997 88.956 154.9666
82.500000 88.848 154.0555
83.800003 88.676 153.6346
85.000000 88.602 153.6158
86.199997 88.563 153.3229
87.500000 88.444 153.0070
88.500000 88.283 153.2882
90.000000 88.137 155.1089
91.199997 88.268 156.0857
92.500000 88.398 155.2067
93.800003 88.249 153.9073
95.000000 87.966 154.5415
96.199997 87.872 156.4943
97.500000 87.928 157.5031
98.800003 87.749 157.5101
100.000000 87.417 158.5350
101.500000 87.174 160.3504
103.000000 87.152 161.2143
104.400002 87.269 161.4958
106.000000 87.635 161.2448
107.500000 87.942 159.6733
109.000000 88.021 158.1222
110.599998 87.957 157.5270
112.000000 87.920 157.3103
113.800003 87.889 156.5808
115.000000 87.862 155.8560
117.199997 87.783 154.7312
118.000000 87.759 154.4866
120.599998 87.685 153.9675
122.000000 87.631 153.8140
124.099998 87.527 153.7288
125.000000 87.479 153.7485
126.500000 87.397 153.8161
128.000000 87.314 153.8751
131.500000 87.133 153.6515
132.000000 87.108 153.5854
134.000000 87.009 153.3871
136.000000 86.919 153.3506
138.000000 86.828 153.4401
140.000000 86.735 153.5071
143.000000 86.582 153.5011
145.000000 86.497 153.5533
147.500000 86.409 153.6699
150.000000 86.322 153.8707
152.500000 86.227 154.0400
155.000000 86.126 154.2054
157.500000 86.034 154.3200
160.000000 85.933 154.4174
162.500000 85.842 154.6624
165.000000 85.763 154.9756
167.500000 85.683 155.4579
170.000000 85.627 155.9053
172.500000 85.586 156.0993
175.000000 85.552 156.2518
177.500000 85.528 156.4364
180.000000 85.472 156.3885
182.500000 85.363 156.4840
185.000000 85.292 156.9562
187.500000 85.261 157.3110
190.000000 85.226 157.3390
192.500000 85.216 157.1790
195.000000 85.236 157.3402
197.500000 85.299 157.8170
200.000000 85.301 157.9296
203.000000 85.154 158.0024
206.000000 85.025 158.3791
209.000000 84.951 158.5195
212.000000 84.875 158.5372
214.000000 84.832 158.6401
218.000000 84.773 158.8176
220.000000 84.737 158.9061
224.000000 84.686 159.1714
227.000000 84.634 159.3102
230.000000 84.564 159.5617
233.000000 84.508 159.8696
236.000000 84.457 160.0674
240.000000 84.369 160.2324
243.000000 84.299 160.4700
247.000000 84.241 160.8712
250.000000 84.213 161.0884
254.000000 84.184 161.4022
258.000000 84.160 161.7816
262.000000 84.116 162.1922
265.000000 84.067 162.5568
269.000000 84.023 162.8945
272.000000 84.007 162.9768
276.000000 83.964 163.1839
280.000000 83.887 163.5730
285.000000 83.806 163.9536
290.000000 83.760 164.3053
295.000000 83.725 164.7286
300.000000 83.681 165.1370
304.000000 83.646 165.4155
307.000000 83.608 165.6677
311.000000 83.555 166.0637
315.000000 83.515 166.4028
320.000000 83.475 166.7289
325.000000 83.443 167.0803
330.000000 83.396 167.4864
335.000000 83.355 167.8565
340.000000 83.331 168.2444
345.000000 83.300 168.6298
350.000000 83.262 168.9145
355.000000 83.233 169.2449
360.000000 83.200 169.6779
365.000000 83.160 170.0943
370.000000 83.127 170.4948
375.000000 83.099 170.8734
382.000000 83.064 171.3599
387.000000 83.043 171.7231
395.000000 83.012 172.3752
400.000000 82.991 172.6904
406.000000 82.968 173.0347
412.000000 82.943 173.4326
418.000000 82.914 173.8878
425.000000 82.876 174.4218
431.000000 82.850 174.8616
437.000000 82.830 175.2767
444.000000 82.809 175.7161
450.000000 82.790 176.0563
455.000000 82.774 176.3591
462.000000 82.750 176.8250
468.000000 82.734 177.2398
475.000000 82.720 177.6591
482.000000 82.708 178.1714
487.000000 82.701 178.5864
494.000000 82.691 179.0831
500.000000 82.682 179.4506
508.000000 82.659 179.9402
515.000000 82.639 -179.6167
522.000000 82.629 -179.1331
530.000000 82.619 -178.5816
538.000000 82.613 -178.0605
545.000000 82.615 -177.6021
552.000000 82.611 -177.1618
560.000000 82.596 -176.7127
570.000000 82.580 -176.0870
580.000000 82.575 -175.4069
590.000000 82.579 -174.7922
600.000000 82.579 -174.1455
608.000000 82.574 -173.6229
615.000000 82.572 -173.2165
622.000000 82.573 -172.8185
630.000000 82.574 -172.3485
640.000000 82.581 -171.7210
650.000000 82.594 -171.0860
660.000000 82.607 -170.4873
670.000000 82.628 -169.8609
680.000000 82.647 -169.1971
690.000000 82.661 -168.5443
700.000000 82.675 -167.9005
710.000000 82.695 -167.3384
720.000000 82.724 -166.7855
730.000000 82.754 -166.1887
740.000000 82.783 -165.5890
750.000000 82.816 -165.0030
762.000000 82.853 -164.3087
775.000000 82.899 -163.5600
788.000000 82.951 -162.8382
800.000000 83.001 -162.1895
812.000000 83.055 -161.5252
825.000000 83.120 -160.8248
838.000000 83.189 -160.1568
850.000000 83.253 -159.5257
862.000000 83.328 -158.9309
875.000000 83.415 -158.3528
885.000000 83.482 -157.9188
900.000000 83.582 -157.2845
912.000000 83.663 -156.8374
925.000000 83.751 -156.3938
938.000000 83.838 -155.9713
950.000000 83.922 -155.6011
962.000000 84.011 -155.2801
975.000000 84.108 -154.9811
988.000000 84.203 -154.7018
1000.000000 84.288 -154.4624
1015.000000 84.389 -154.2046
1030.000000 84.484 -153.9846
1044.000000 84.571 -153.7902
1060.000000 84.669 -153.5849
1075.000000 84.761 -153.4110
1090.000000 84.856 -153.2340
1106.000000 84.958 -153.0723
1120.000000 85.046 -152.9875
1138.000000 85.155 -152.9469
1150.000000 85.224 -152.9474
1172.000000 85.342 -152.9766
1180.000000 85.382 -152.9912
1206.000000 85.503 -153.0232
1220.000000 85.564 -153.0155
1241.000000 85.654 -152.9585
1250.000000 85.693 -152.9236
1265.000000 85.763 -152.8759
1280.000000 85.839 -152.8540
1315.000000 86.041 -153.0425
1320.000000 86.069 -153.1048
1340.000000 86.168 -153.4276
1360.000000 86.248 -153.8338
1380.000000 86.310 -154.2408
1400.000000 86.358 -154.6015
1430.000000 86.416 -155.0494
1450.000000 86.450 -155.3034
1475.000000 86.488 -155.5910
1500.000000 86.530 -155.8958
1525.000000 86.571 -156.2573
1550.000000 86.598 -156.6668
1575.000000 86.610 -157.1059
1600.000000 86.603 -157.5308
1625.000000 86.576 -157.8841
1650.000000 86.537 -158.1338
1675.000000 86.493 -158.2946
1700.000000 86.436 -158.3792
1725.000000 86.365 -158.3851
1750.000000 86.277 -158.2480
1775.000000 86.178 -157.8454
1800.000000 86.077 -157.0901
1825.000000 86.000 -155.9390
1850.000000 85.984 -154.4076
1875.000000 86.062 -152.6622
1900.000000 86.258 -150.9913
1925.000000 86.566 -149.7904
1950.000000 86.930 -149.4305
1975.000000 87.274 -150.0115
2000.000000 87.539 -151.2793
2030.000000 87.722 -153.1546
2060.000000 87.788 -154.9851
2090.000000 87.780 -156.5155
2120.000000 87.736 -157.6844
2140.000000 87.700 -158.3004
2180.000000 87.633 -159.3212
2200.000000 87.598 -159.7851
2240.000000 87.519 -160.6534
2270.000000 87.448 -161.2134
2300.000000 87.372 -161.6712
2330.000000 87.296 -162.0441
2360.000000 87.223 -162.3763
2400.000000 87.123 -162.8054
2430.000000 87.039 -163.1211
2470.000000 86.913 -163.4879
2500.000000 86.809 -163.6855
2540.000000 86.662 -163.8193
2580.000000 86.510 -163.8082
2620.000000 86.359 -163.6485
2650.000000 86.251 -163.4406
2690.000000 86.116 -163.0750
2720.000000 86.022 -162.7518
2760.000000 85.903 -162.2997
2800.000000 85.787 -161.8352
2850.000000 85.638 -161.1770
2900.000000 85.488 -160.3638
2950.000000 85.353 -159.3652
3000.000000 85.247 -158.2475
3040.000000 85.185 -157.3276
3070.000000 85.151 -156.6581
3110.000000 85.112 -155.8240
3150.000000 85.077 -155.0547
3200.000000 85.034 -154.1405
3250.000000 84.988 -153.2201
3300.000000 84.942 -152.2886
3350.000000 84.898 -151.3432
3400.000000 84.856 -150.3791
3450.000000 84.817 -149.3937
3500.000000 84.783 -148.3745
3550.000000 84.753 -147.3216
3600.000000 84.729 -146.2409
3650.000000 84.712 -145.1392
3700.000000 84.699 -144.0190
3750.000000 84.691 -142.8764
3820.000000 84.691 -141.2147
3870.000000 84.701 -139.9819
3950.000000 84.738 -137.9609
4000.000000 84.777 -136.6838
4060.000000 84.842 -135.1635
4120.000000 84.924 -133.6546
4180.000000 85.019 -132.1746
4250.000000 85.150 -130.5042
4310.000000 85.279 -129.1211
4370.000000 85.421 -127.7902
4440.000000 85.602 -126.2997
4500.000000 85.771 -125.0702
4550.000000 85.921 -124.0828
4620.000000 86.150 -122.7655
4680.000000 86.365 -121.7120
4750.000000 86.640 -120.6007
4820.000000 86.942 -119.6475
4870.000000 87.175 -119.0887
4940.000000 87.522 -118.5244
5000.000000 87.837 -118.2826
5080.000000 88.271 -118.3616
5150.000000 88.657 -118.8696
5220.000000 89.038 -119.8573
5300.000000 89.439 -121.6376
5380.000000 89.770 -124.1345
5450.000000 89.966 -126.8391
5520.000000 90.044 -129.8603
5600.000000 89.965 -133.3549
5700.000000 89.611 -137.0458
5800.000000 89.032 -139.1057
5900.000000 88.354 -138.9280
6000.000000 87.748 -136.4258
6080.000000 87.427 -133.0393
6150.000000 87.325 -129.4258
6220.000000 87.419 -125.5928
6300.000000 87.766 -121.4415
6400.000000 88.505 -117.3447
6500.000000 89.471 -115.1526
6600.000000 90.518 -115.2767
6700.000000 91.499 -117.7591
6800.000000 92.290 -122.2342
6900.000000 92.812 -127.9496
7000.000000 93.053 -133.9785
7100.000000 93.060 -139.5335
7200.000000 92.915 -144.1902
7300.000000 92.695 -147.8664
7400.000000 92.465 -150.6572
7500.000000 92.271 -152.7525
7620.000000 92.132 -154.6931
7750.000000 92.128 -156.5590
7880.000000 92.289 -158.7193
8000.000000 92.574 -161.4997
8120.000000 92.944 -165.5873
8250.000000 93.336 -172.0692
8380.000000 93.547 179.0488
8500.000000 93.409 169.1694
8620.000000 92.839 158.9146
8750.000000 91.732 149.2167
8850.000000 90.613 143.7021
9000.000000 88.732 139.1907
9120.000000 87.253 138.5499
9250.000000 85.848 140.0446
9380.000000 84.745 142.8443
9500.000000 84.005 145.7911
9620.000000 83.483 148.5720
9750.000000 83.082 151.1969
9880.000000 82.802 153.5589
10000.000000 82.662 155.6101
10150.000000 82.690 157.6918
10300.000000 82.930 158.4543
10440.000000 83.227 157.3507
10600.000000 83.460 153.9626
10750.000000 83.446 149.5577
10900.000000 83.189 145.0840
11060.000000 82.719 141.1010
11200.000000 82.226 138.5464
11380.000000 81.587 136.4521
11500.000000 81.198 135.6294
11720.000000 80.610 134.9037
11800.000000 80.444 134.8063
12060.000000 80.090 134.7460
12200.000000 80.018 134.7293
12410.000000 80.072 134.5125
12500.000000 80.156 134.3058
12650.000000 80.384 133.7489
12800.000000 80.727 132.8422
13150.000000 82.043 128.6693
13200.000000 82.298 127.7404
13400.000000 83.498 122.7549
13600.000000 84.970 114.9561
13800.000000 86.576 102.9552
14000.000000 87.984 85.3558
14300.000000 88.818 49.8502
14500.000000 88.272 25.5452
14750.000000 86.802 0.4061
15000.000000 85.285 -19.1150
15250.000000 84.343 -36.3311
15500.000000 84.256 -54.8512
15750.000000 84.980 -79.0644
16000.000000 85.770 -114.2842
16250.000000 85.341 -159.8978
16500.000000 83.075 156.0402
16750.000000 79.556 121.9014
17000.000000 75.857 95.2087
17250.000000 72.656 71.4795
17500.000000 70.079 48.0732
17750.000000 68.012 23.6619
18000.000000 66.337 -2.3831
18250.000000 65.080 -30.8896
18500.000000 64.232 -64.2335
18750.000000 63.451 -103.1935
19000.000000 62.692 -147.8259
19250.000000 61.953 160.1345
19500.000000 61.113 99.6970
19750.000000 60.131 37.2632
