* Measurement data measured by REW V5.20.9
* Source: USB-C to 3.5mm Headphone Jack Adapter, USB-C to 3.5mm Headphone Jack Adapter, 0, volume: 0.138
* Format: 256k Log Swept Sine, 1 sweep at -12.0 dBFS with no timing reference
* Dated: 11/03/2023 3:45:01 PM
* REW Settings:
*  C-weighting compensation: Off
*  Target level: 75.0 dB
* Note: ; 
* Measurement: Kublai Khan L
* Smoothing: 1/24 octave
* Frequency Step: 1/48 octave
* Start Frequency: 1.000 Hz
*
* Freq(Hz) SPL(dB) Phase(degrees)
1.000000 78.486 -1.2525
1.015000 78.712 -2.9133
1.030000 78.933 -4.4076
1.044000 79.137 -5.6610
1.060000 79.367 -6.9399
1.075000 79.579 -8.0029
1.090000 79.788 -8.9473
1.106000 80.008 -9.8379
1.120000 80.198 -10.5300
1.138000 80.438 -11.3174
1.150000 80.596 -11.7880
1.172000 80.881 -12.5623
1.180000 80.983 -12.8216
1.206000 81.310 -13.6131
1.220000 81.483 -14.0235
1.241000 81.738 -14.6460
1.250000 81.846 -14.9226
1.265000 82.024 -15.4068
1.280000 82.200 -15.9309
1.315000 82.602 -17.3789
1.320000 82.658 -17.6183
1.340000 82.881 -18.6758
1.360000 83.101 -19.8856
1.380000 83.315 -21.1748
1.400000 83.524 -22.5284
1.430000 83.828 -24.6573
1.450000 84.025 -26.1272
1.475000 84.265 -28.0034
1.500000 84.498 -29.9038
1.525000 84.726 -31.8084
1.550000 84.948 -33.6971
1.575000 85.165 -35.5497
1.600000 85.377 -37.3460
1.625000 85.585 -39.0660
1.650000 85.789 -40.6896
1.675000 85.990 -42.1965
1.700000 86.187 -43.5785
1.725000 86.378 -44.8640
1.750000 86.563 -46.0659
1.775000 86.744 -47.1955
1.800000 86.919 -48.2641
1.825000 87.090 -49.2828
1.850000 87.256 -50.2630
1.875000 87.418 -51.2160
1.900000 87.576 -52.1531
1.925000 87.731 -53.0854
1.950000 87.882 -54.0244
1.975000 88.031 -54.9812
2.000000 88.176 -55.9672
2.030000 88.348 -57.2003
2.060000 88.514 -58.4534
2.090000 88.674 -59.7122
2.120000 88.828 -60.9733
2.140000 88.929 -61.8136
2.180000 89.122 -63.4884
2.200000 89.216 -64.3209
2.240000 89.399 -65.9709
2.270000 89.531 -67.1913
2.300000 89.660 -68.3930
2.330000 89.786 -69.5727
2.360000 89.909 -70.7272
2.400000 90.067 -72.2426
2.430000 90.181 -73.3658
2.470000 90.326 -74.8422
2.500000 90.430 -75.9316
2.540000 90.564 -77.3569
2.580000 90.693 -78.7475
2.620000 90.816 -80.0994
2.650000 90.907 -81.0855
2.690000 91.024 -82.3601
2.720000 91.109 -83.2795
2.760000 91.217 -84.4522
2.800000 91.320 -85.5741
2.850000 91.442 -86.9220
2.900000 91.557 -88.2294
2.950000 91.667 -89.5179
3.000000 91.773 -90.8091
3.040000 91.855 -91.8583
3.070000 91.914 -92.6559
3.110000 91.990 -93.7262
3.150000 92.062 -94.7958
3.200000 92.147 -96.1179
3.250000 92.229 -97.4063
3.300000 92.308 -98.6432
3.350000 92.384 -99.8103
3.400000 92.459 -100.8910
3.450000 92.530 -101.8890
3.500000 92.597 -102.8238
3.550000 92.662 -103.7155
3.600000 92.724 -104.5838
3.650000 92.785 -105.4488
3.700000 92.846 -106.3302
3.750000 92.905 -107.2310
3.820000 92.984 -108.4943
3.870000 93.039 -109.3872
3.950000 93.124 -110.7772
4.000000 93.177 -111.6091
4.060000 93.239 -112.5564
4.120000 93.299 -113.4439
4.180000 93.359 -114.2859
4.250000 93.427 -115.2327
4.310000 93.483 -116.0326
4.370000 93.539 -116.8392
4.440000 93.602 -117.7920
4.500000 93.656 -118.6052
4.550000 93.699 -119.2773
4.620000 93.758 -120.2049
4.680000 93.808 -120.9831
4.750000 93.863 -121.8665
4.820000 93.917 -122.7264
4.870000 93.954 -123.3284
4.940000 94.004 -124.1570
5.000000 94.045 -124.8564
5.080000 94.097 -125.7771
5.150000 94.141 -126.5699
5.220000 94.182 -127.3492
5.300000 94.227 -128.2221
5.380000 94.270 -129.0749
5.450000 94.305 -129.8050
5.520000 94.338 -130.5210
5.600000 94.375 -131.3201
5.700000 94.418 -132.2876
5.800000 94.459 -133.2153
5.900000 94.498 -134.1048
6.000000 94.535 -134.9666
6.080000 94.564 -135.6432
6.150000 94.590 -136.2238
6.220000 94.614 -136.7929
6.300000 94.642 -137.4307
6.400000 94.676 -138.2109
6.500000 94.710 -138.9684
6.600000 94.744 -139.7058
6.700000 94.776 -140.4324
6.800000 94.808 -141.1547
6.900000 94.839 -141.8687
7.000000 94.868 -142.5726
7.100000 94.896 -143.2655
7.200000 94.922 -143.9483
7.300000 94.947 -144.6200
7.400000 94.970 -145.2788
7.500000 94.991 -145.9256
7.620000 95.014 -146.6853
7.750000 95.036 -147.4811
7.880000 95.056 -148.2465
8.000000 95.074 -148.9276
8.120000 95.091 -149.5837
8.250000 95.109 -150.2639
8.380000 95.128 -150.9205
8.500000 95.147 -151.5099
8.620000 95.167 -152.0809
8.750000 95.190 -152.6920
8.850000 95.209 -153.1579
9.000000 95.240 -153.8505
9.120000 95.265 -154.4115
9.250000 95.293 -155.0258
9.380000 95.321 -155.6478
9.500000 95.346 -156.2322
9.620000 95.370 -156.8257
9.750000 95.393 -157.4745
9.880000 95.413 -158.1303
10.000000 95.430 -158.7396
10.150000 95.445 -159.4935
10.300000 95.456 -160.2417
10.440000 95.462 -160.9228
10.600000 95.464 -161.6771
10.750000 95.462 -162.3566
10.900000 95.458 -163.0017
11.060000 95.452 -163.6545
11.200000 95.446 -164.1941
11.380000 95.439 -164.8464
11.500000 95.436 -165.2617
11.720000 95.433 -165.9815
11.800000 95.433 -166.2373
12.060000 95.439 -167.0453
12.200000 95.445 -167.4809
12.410000 95.457 -168.1377
12.500000 95.462 -168.4249
12.650000 95.472 -168.9105
12.800000 95.480 -169.4029
13.150000 95.493 -170.5740
13.200000 95.493 -170.7411
13.400000 95.493 -171.4057
13.600000 95.489 -172.0475
13.800000 95.482 -172.6629
14.000000 95.472 -173.2423
14.300000 95.457 -174.0496
14.500000 95.449 -174.5542
14.750000 95.443 -175.1594
15.000000 95.439 -175.7568
15.250000 95.437 -176.3543
15.500000 95.435 -176.9548
15.750000 95.432 -177.5538
16.000000 95.427 -178.1412
16.250000 95.423 -178.7160
16.500000 95.419 -179.2821
16.750000 95.418 -179.8525
17.000000 95.418 179.5521
17.250000 95.417 178.9235
17.500000 95.410 178.2609
17.750000 95.394 177.5790
18.000000 95.367 176.9153
18.250000 95.332 176.3000
18.500000 95.290 175.7598
18.750000 95.250 175.3101
19.000000 95.216 174.9297
19.250000 95.194 174.5862
19.500000 95.184 174.2414
19.750000 95.183 173.8477
20.000000 95.184 173.3896
20.299999 95.182 172.7625
20.600000 95.168 172.0910
20.900000 95.141 171.4368
21.200001 95.104 170.8504
21.400000 95.079 170.5074
21.799999 95.035 169.9022
22.000000 95.018 169.6157
22.400000 94.990 169.0284
22.700001 94.969 168.5594
23.000000 94.943 168.0840
23.299999 94.910 167.6326
23.600000 94.875 167.2288
24.000000 94.833 166.7630
24.299999 94.809 166.4311
24.700001 94.786 165.9416
25.000000 94.770 165.5097
25.400000 94.739 164.8549
25.799999 94.692 164.1716
26.200001 94.631 163.5298
26.500000 94.582 163.0935
26.900000 94.519 162.5532
27.200001 94.476 162.1539
27.600000 94.422 161.5987
28.000000 94.366 161.0152
28.500000 94.290 160.2934
29.000000 94.212 159.6529
29.500000 94.145 159.1124
30.000000 94.099 158.6154
30.400000 94.074 158.2009
30.700001 94.060 157.8682
31.100000 94.042 157.4028
31.500000 94.022 156.9389
32.000000 93.996 156.4006
32.500000 93.971 155.9195
33.000000 93.950 155.4687
33.500000 93.928 155.0197
34.000000 93.902 154.5675
34.500000 93.868 154.1216
35.000000 93.824 153.6923
35.500000 93.770 153.2928
36.000000 93.711 152.9391
36.500000 93.653 152.6229
37.000000 93.602 152.2879
37.500000 93.553 151.8661
38.200001 93.465 151.1468
38.700001 93.383 150.6691
39.500000 93.254 150.1531
40.000000 93.198 149.9044
40.599998 93.154 149.5243
41.200001 93.114 149.0252
41.799999 93.068 148.4747
42.500000 93.003 147.8529
43.099998 92.941 147.3710
43.700001 92.877 146.9493
44.400002 92.803 146.5157
45.000000 92.743 146.1593
45.500000 92.692 145.8551
46.200001 92.618 145.4169
46.799999 92.551 145.0582
47.500000 92.474 144.7009
48.200001 92.414 144.3594
48.700001 92.379 144.0553
49.400002 92.323 143.5349
50.000000 92.259 143.1033
50.799999 92.163 142.6891
51.500000 92.089 142.4542
52.200001 92.026 142.2573
53.000000 91.963 142.0036
53.799999 91.899 141.6803
54.500000 91.835 141.3664
55.200001 91.768 141.0442
56.000000 91.688 140.6468
57.000000 91.583 140.1584
58.000000 91.491 139.7653
59.000000 91.425 139.2758
60.000000 91.337 138.7200
60.799999 91.255 138.4913
61.500000 91.202 138.3979
62.200001 91.159 138.2518
63.000000 91.098 138.0425
64.000000 91.014 137.8795
65.000000 90.947 137.6423
66.000000 90.865 137.1483
67.000000 90.744 136.6741
68.000000 90.628 136.3928
69.000000 90.539 136.1099
70.000000 90.457 135.8032
71.000000 90.384 135.5530
72.000000 90.321 135.2961
73.000000 90.254 135.0194
74.000000 90.178 134.7655
75.000000 90.095 134.5493
76.199997 89.998 134.3325
77.500000 89.900 134.0707
78.800003 89.808 133.7731
80.000000 89.719 133.4693
81.199997 89.622 133.2707
82.500000 89.527 133.1410
83.800003 89.434 133.0142
85.000000 89.353 132.8771
86.199997 89.273 132.6716
87.500000 89.188 132.4080
88.500000 89.123 132.1903
90.000000 89.027 131.9176
91.199997 88.953 131.7427
92.500000 88.872 131.5720
93.800003 88.786 131.4133
95.000000 88.708 131.2557
96.199997 88.628 131.0765
97.500000 88.543 130.9187
98.800003 88.474 130.8220
100.000000 88.420 130.7068
101.500000 88.344 130.6171
103.000000 88.275 130.6276
104.400002 88.223 130.5563
106.000000 88.138 130.2432
107.500000 88.029 130.0609
109.000000 87.926 129.9545
110.599998 87.822 129.8608
112.000000 87.733 129.7762
113.800003 87.625 129.6672
115.000000 87.560 129.5563
117.199997 87.438 129.3201
118.000000 87.395 129.2996
120.599998 87.301 129.3048
122.000000 87.258 129.2625
124.099998 87.182 129.2238
125.000000 87.147 129.2386
126.500000 87.088 129.2703
128.000000 87.026 129.2751
131.500000 86.854 129.0222
132.000000 86.827 128.9695
134.000000 86.727 128.7602
136.000000 86.629 128.5379
138.000000 86.521 128.4578
140.000000 86.431 128.5364
143.000000 86.346 128.6885
145.000000 86.294 128.9186
147.500000 86.192 129.2557
150.000000 86.027 129.3776
152.500000 85.850 129.4028
155.000000 85.716 129.8061
157.500000 85.602 130.8885
160.000000 85.503 132.0830
162.500000 85.444 132.9156
165.000000 85.531 133.5564
167.500000 85.743 133.9422
170.000000 85.958 134.0283
172.500000 86.108 133.6006
175.000000 86.160 132.6215
177.500000 86.136 131.5436
180.000000 86.078 130.6737
182.500000 86.010 130.0770
185.000000 85.948 129.5651
187.500000 85.886 129.0729
190.000000 85.816 128.7495
192.500000 85.732 128.6107
195.000000 85.645 128.5034
197.500000 85.580 128.3140
200.000000 85.527 128.1647
203.000000 85.436 128.1510
206.000000 85.319 127.9892
209.000000 85.220 127.8260
212.000000 85.195 128.0087
214.000000 85.192 128.1134
218.000000 85.155 128.0226
220.000000 85.134 127.9192
224.000000 85.083 127.8419
227.000000 85.031 127.7601
230.000000 84.984 127.6332
233.000000 84.943 127.6149
236.000000 84.895 127.6252
240.000000 84.815 127.4080
243.000000 84.763 127.2582
247.000000 84.704 127.1768
250.000000 84.649 127.1179
254.000000 84.584 127.0941
258.000000 84.541 127.1213
262.000000 84.491 127.2832
265.000000 84.450 127.4716
269.000000 84.407 127.6701
272.000000 84.389 127.7213
276.000000 84.362 127.7375
280.000000 84.323 127.8291
285.000000 84.298 127.9460
290.000000 84.285 127.9379
295.000000 84.253 127.8301
300.000000 84.209 127.8088
304.000000 84.177 127.8109
307.000000 84.158 127.7714
311.000000 84.134 127.6282
315.000000 84.094 127.4788
320.000000 84.029 127.4135
325.000000 83.954 127.3386
330.000000 83.846 127.3528
335.000000 83.716 127.5207
340.000000 83.579 128.0467
345.000000 83.478 128.9991
350.000000 83.416 130.1803
355.000000 83.417 131.4651
360.000000 83.479 132.5239
365.000000 83.565 133.2309
370.000000 83.656 133.7574
375.000000 83.739 134.0992
382.000000 83.840 134.2610
387.000000 83.870 134.3725
395.000000 83.804 134.5108
400.000000 83.571 135.6667
406.000000 83.523 141.4295
412.000000 84.669 147.6499
418.000000 86.110 146.1172
425.000000 86.763 136.9075
431.000000 86.467 130.3170
437.000000 85.944 127.1057
444.000000 85.377 125.6412
450.000000 84.884 125.9406
455.000000 84.564 127.7192
462.000000 84.540 130.7221
468.000000 84.725 131.8083
475.000000 84.879 131.8932
482.000000 84.953 131.7689
487.000000 84.984 131.7305
494.000000 85.018 131.7111
500.000000 85.052 131.7010
508.000000 85.098 131.7314
515.000000 85.128 131.7706
522.000000 85.161 131.8225
530.000000 85.200 131.9016
538.000000 85.238 131.9913
545.000000 85.275 132.0352
552.000000 85.312 132.0862
560.000000 85.354 132.1575
570.000000 85.408 132.2794
580.000000 85.463 132.3492
590.000000 85.517 132.4455
600.000000 85.574 132.5712
608.000000 85.615 132.6555
615.000000 85.649 132.7408
622.000000 85.686 132.8285
630.000000 85.726 132.9423
640.000000 85.776 133.0964
650.000000 85.828 133.2355
660.000000 85.881 133.3795
670.000000 85.930 133.5290
680.000000 85.979 133.6982
690.000000 86.029 133.8855
700.000000 86.073 134.1142
710.000000 86.115 134.4051
720.000000 86.166 134.7931
730.000000 86.246 135.1574
740.000000 86.336 135.3291
750.000000 86.405 135.3991
762.000000 86.468 135.5418
775.000000 86.531 135.8092
788.000000 86.595 136.1031
800.000000 86.658 136.3779
812.000000 86.719 136.6833
825.000000 86.787 137.0266
838.000000 86.858 137.3878
850.000000 86.928 137.7120
862.000000 86.997 138.0531
875.000000 87.072 138.4270
885.000000 87.130 138.7077
900.000000 87.218 139.1366
912.000000 87.291 139.4719
925.000000 87.367 139.8164
938.000000 87.442 140.1657
950.000000 87.514 140.4789
962.000000 87.588 140.7737
975.000000 87.663 141.0893
988.000000 87.737 141.4001
1000.000000 87.806 141.6848
1015.000000 87.893 142.0273
1030.000000 87.977 142.3392
1044.000000 88.053 142.6140
1060.000000 88.136 142.9202
1075.000000 88.210 143.2017
1090.000000 88.279 143.4820
1106.000000 88.350 143.7799
1120.000000 88.408 144.0282
1138.000000 88.478 144.3401
1150.000000 88.521 144.5556
1172.000000 88.592 144.9641
1180.000000 88.616 145.1126
1206.000000 88.687 145.6071
1220.000000 88.720 145.8879
1241.000000 88.763 146.3309
1250.000000 88.780 146.5296
1265.000000 88.804 146.8731
1280.000000 88.827 147.2334
1315.000000 88.871 148.1376
1320.000000 88.876 148.2750
1340.000000 88.895 148.8456
1360.000000 88.910 149.4479
1380.000000 88.922 150.0763
1400.000000 88.932 150.7343
1430.000000 88.944 151.7796
1450.000000 88.950 152.5144
1475.000000 88.957 153.4755
1500.000000 88.962 154.4716
1525.000000 88.967 155.5058
1550.000000 88.972 156.5814
1575.000000 88.977 157.6960
1600.000000 88.984 158.8336
1625.000000 88.991 159.9996
1650.000000 89.000 161.1966
1675.000000 89.011 162.4098
1700.000000 89.022 163.6428
1725.000000 89.035 164.9003
1750.000000 89.051 166.1722
1775.000000 89.069 167.4549
1800.000000 89.090 168.7469
1825.000000 89.112 170.0454
1850.000000 89.136 171.3500
1875.000000 89.162 172.6548
1900.000000 89.191 173.9601
1925.000000 89.222 175.2675
1950.000000 89.255 176.5756
1975.000000 89.291 177.8782
2000.000000 89.329 179.1743
2030.000000 89.377 -179.2826
2060.000000 89.428 -177.7585
2090.000000 89.483 -176.2506
2120.000000 89.539 -174.7663
2140.000000 89.577 -173.7914
2180.000000 89.657 -171.8763
2200.000000 89.697 -170.9372
2240.000000 89.781 -169.1054
2270.000000 89.845 -167.7737
2300.000000 89.910 -166.4782
2330.000000 89.974 -165.2199
2360.000000 90.039 -164.0012
2400.000000 90.124 -162.4464
2430.000000 90.186 -161.3339
2470.000000 90.267 -159.9201
2500.000000 90.324 -158.9115
2540.000000 90.395 -157.6402
2580.000000 90.461 -156.4516
2620.000000 90.519 -155.3436
2650.000000 90.558 -154.5665
2690.000000 90.601 -153.5937
2720.000000 90.627 -152.9104
2760.000000 90.654 -152.0654
2800.000000 90.669 -151.2930
2850.000000 90.673 -150.4118
2900.000000 90.659 -149.6117
2950.000000 90.627 -148.8920
3000.000000 90.577 -148.2423
3040.000000 90.525 -147.7660
3070.000000 90.480 -147.4319
3110.000000 90.413 -147.0157
3150.000000 90.336 -146.6329
3200.000000 90.231 -146.2065
3250.000000 90.116 -145.8387
3300.000000 89.991 -145.5284
3350.000000 89.859 -145.2805
3400.000000 89.724 -145.0988
3450.000000 89.587 -144.9963
3500.000000 89.453 -144.9973
3550.000000 89.320 -145.1213
3600.000000 89.191 -145.3789
3650.000000 89.066 -145.7864
3700.000000 88.947 -146.3615
3750.000000 88.836 -147.1133
3820.000000 88.699 -148.4930
3870.000000 88.614 -149.7390
3950.000000 88.505 -152.2227
4000.000000 88.450 -154.1271
4060.000000 88.385 -156.8473
4120.000000 88.273 -160.0152
4180.000000 88.039 -162.9398
4250.000000 87.799 -164.2602
4310.000000 88.010 -164.8353
4370.000000 88.402 -167.6319
4440.000000 88.663 -172.5884
4500.000000 88.728 -176.8504
4550.000000 88.699 179.9085
4620.000000 88.552 176.2610
4680.000000 88.378 174.2770
4750.000000 88.208 173.3242
4820.000000 88.132 173.4832
4870.000000 88.139 174.0546
4940.000000 88.214 175.3565
5000.000000 88.334 176.9306
5080.000000 88.585 179.6957
5150.000000 88.920 -177.3661
5220.000000 89.387 -174.2217
5300.000000 90.076 -170.8673
5380.000000 90.869 -168.2904
5450.000000 91.568 -166.8781
5520.000000 92.211 -166.1035
5600.000000 92.858 -165.6103
5700.000000 93.559 -165.2700
5800.000000 94.135 -165.1583
5900.000000 94.575 -164.9730
6000.000000 94.924 -164.4317
6080.000000 95.171 -163.8267
6150.000000 95.362 -163.2810
6220.000000 95.521 -162.7120
6300.000000 95.665 -161.9801
6400.000000 95.792 -160.9493
6500.000000 95.854 -159.8334
6600.000000 95.840 -158.5754
6700.000000 95.745 -157.0500
6800.000000 95.580 -155.1334
6900.000000 95.361 -152.7637
7000.000000 95.101 -149.9232
7100.000000 94.810 -146.5804
7200.000000 94.504 -142.6019
7300.000000 94.237 -137.9735
7400.000000 94.055 -132.9520
7500.000000 93.978 -127.9085
7620.000000 94.008 -122.4128
7750.000000 94.105 -117.8044
7880.000000 94.106 -114.8494
8000.000000 93.886 -113.1396
8120.000000 93.392 -111.4700
8250.000000 92.585 -108.6319
8380.000000 91.607 -104.1772
8500.000000 90.654 -98.6372
8620.000000 89.718 -91.9216
8750.000000 88.777 -83.6350
8850.000000 88.124 -76.7877
9000.000000 87.249 -66.0957
9120.000000 86.622 -57.2964
9250.000000 86.006 -47.5490
9380.000000 85.458 -37.6172
9500.000000 85.015 -28.3359
9620.000000 84.633 -19.0107
9750.000000 84.286 -8.9191
9880.000000 84.006 1.1238
10000.000000 83.805 10.3084
10150.000000 83.627 21.6277
10300.000000 83.530 32.7126
10440.000000 83.507 42.7665
10600.000000 83.544 53.9034
10750.000000 83.636 64.0845
10900.000000 83.803 74.0367
11060.000000 84.086 84.2183
11200.000000 84.412 92.4941
11380.000000 84.877 102.1151
11500.000000 85.202 107.9704
11720.000000 85.823 117.2875
11800.000000 86.024 120.0995
12060.000000 86.392 128.1306
12200.000000 86.441 132.6585
12410.000000 86.481 140.2785
12500.000000 86.523 143.7502
12650.000000 86.652 149.5627
12800.000000 86.858 155.1310
13150.000000 87.506 165.9236
13200.000000 87.602 167.1884
13400.000000 87.987 171.7002
13600.000000 88.431 175.2457
13800.000000 88.968 177.0802
14000.000000 89.512 175.9316
14300.000000 89.713 167.1025
14500.000000 88.976 159.1882
14750.000000 87.094 153.7293
15000.000000 84.969 155.4759
15250.000000 83.658 159.9317
15500.000000 83.283 160.4120
15750.000000 82.977 154.4950
16000.000000 82.152 145.4560
16250.000000 80.911 136.8984
16500.000000 79.606 129.3994
16750.000000 78.450 122.0450
17000.000000 77.472 114.1779
17250.000000 76.671 105.9397
17500.000000 76.279 97.3777
17750.000000 76.587 85.3896
18000.000000 77.040 65.7843
18250.000000 76.991 40.2004
18500.000000 76.525 11.4317
18750.000000 75.888 -21.1354
19000.000000 75.132 -59.6823
19250.000000 74.130 -106.0865
19500.000000 72.730 -160.5733
19750.000000 70.982 143.1100
