* Measurement data measured by REW V5.20.9
* Source: USB-C to 3.5mm Headphone Jack Adapter, USB-C to 3.5mm Headphone Jack Adapter, 0, volume: 0.138
* Format: 256k Log Swept Sine, 1 sweep at -12.0 dBFS with no timing reference
* Dated: 06/10/2022 10:08:48 PM
* REW Settings:
*  C-weighting compensation: Off
*  Target level: 75.0 dB
* Note: ; 
* Measurement: M4 Stock - L
* Smoothing: 1/24 octave
* Frequency Step: 1/48 octave
* Start Frequency: 1.000 Hz
*
* Freq(Hz) SPL(dB) Phase(degrees)
1.000000 57.671 -132.2824
1.015000 57.664 -133.1831
1.030000 57.650 -134.1796
1.044000 57.632 -135.1956
1.060000 57.604 -136.4450
1.075000 57.572 -137.6891
1.090000 57.533 -138.9910
1.106000 57.484 -140.4292
1.120000 57.435 -141.7182
1.138000 57.364 -143.4004
1.150000 57.310 -144.5278
1.172000 57.200 -146.5829
1.180000 57.156 -147.3204
1.206000 56.998 -149.6504
1.220000 56.904 -150.8463
1.241000 56.750 -152.5356
1.250000 56.679 -153.2139
1.265000 56.554 -154.2737
1.280000 56.421 -155.2342
1.315000 56.077 -157.0199
1.320000 56.024 -157.2162
1.340000 55.802 -157.8362
1.360000 55.558 -158.2514
1.380000 55.277 -158.6628
1.400000 54.961 -159.0558
1.430000 54.435 -159.5476
1.450000 54.057 -159.7686
1.475000 53.562 -159.8742
1.500000 53.052 -159.7379
1.525000 52.536 -159.3037
1.550000 52.024 -158.5155
1.575000 51.526 -157.3174
1.600000 51.053 -155.6533
1.625000 50.613 -153.4672
1.650000 50.217 -150.7030
1.675000 49.875 -147.3048
1.700000 49.574 -143.0827
1.725000 49.266 -137.7232
1.750000 48.954 -131.3876
1.775000 48.648 -124.2637
1.800000 48.358 -116.5389
1.825000 48.091 -108.4007
1.850000 47.858 -100.0368
1.875000 47.667 -91.6347
1.900000 47.527 -83.3820
1.925000 47.446 -75.4661
1.950000 47.436 -68.0746
1.975000 47.503 -61.3952
2.000000 47.657 -55.6154
2.030000 47.975 -50.0564
2.060000 48.485 -45.4149
2.090000 49.168 -41.4557
2.120000 49.990 -38.1253
2.140000 50.597 -36.2281
2.180000 51.906 -33.1381
2.200000 52.587 -31.9136
2.240000 53.951 -30.0271
2.270000 54.933 -29.0421
2.300000 55.842 -28.3664
2.330000 56.641 -27.9466
2.360000 57.297 -27.7383
2.400000 58.025 -28.3870
2.430000 58.503 -29.6490
2.470000 59.064 -32.1174
2.500000 59.434 -34.3889
2.540000 59.876 -37.7294
2.580000 60.272 -41.1427
2.620000 60.638 -44.3194
2.650000 60.903 -46.3605
2.690000 61.256 -48.3786
2.720000 61.514 -49.3691
2.760000 61.824 -50.3152
2.800000 62.099 -50.9225
2.850000 62.401 -51.3527
2.900000 62.664 -51.5940
2.950000 62.899 -51.8354
3.000000 63.114 -52.2659
3.040000 63.277 -52.8673
3.070000 63.388 -53.4489
3.110000 63.515 -54.3344
3.150000 63.624 -55.2979
3.200000 63.738 -56.5328
3.250000 63.834 -57.7066
3.300000 63.919 -58.7178
3.350000 63.998 -59.4647
3.400000 64.070 -59.8979
3.450000 64.119 -60.1226
3.500000 64.153 -60.1679
3.550000 64.179 -60.0559
3.600000 64.206 -59.8089
3.650000 64.240 -59.4488
3.700000 64.292 -58.9979
3.750000 64.353 -58.3995
3.820000 64.442 -57.2576
3.870000 64.513 -56.3007
3.950000 64.653 -54.6798
4.000000 64.764 -53.6978
4.060000 64.929 -52.6260
4.120000 65.127 -51.5525
4.180000 65.352 -50.4699
4.250000 65.640 -49.2492
4.310000 65.902 -48.2852
4.370000 66.171 -47.4397
4.440000 66.502 -46.5749
4.500000 66.806 -45.9005
4.550000 67.068 -45.4083
4.620000 67.436 -44.8610
4.680000 67.744 -44.5560
4.750000 68.085 -44.4384
4.820000 68.423 -44.5912
4.870000 68.661 -44.8254
4.940000 68.985 -45.2660
5.000000 69.250 -45.6934
5.080000 69.581 -46.2624
5.150000 69.852 -46.8288
5.220000 70.107 -47.4630
5.300000 70.381 -48.2412
5.380000 70.636 -49.0435
5.450000 70.843 -49.7767
5.520000 71.033 -50.5581
5.600000 71.234 -51.4700
5.700000 71.467 -52.5700
5.800000 71.681 -53.5834
5.900000 71.871 -54.5522
6.000000 72.047 -55.4699
6.080000 72.182 -56.1616
6.150000 72.294 -56.7330
6.220000 72.400 -57.2763
6.300000 72.517 -57.8689
6.400000 72.659 -58.5767
6.500000 72.799 -59.2431
6.600000 72.933 -59.8689
6.700000 73.065 -60.4687
6.800000 73.194 -61.0497
6.900000 73.321 -61.6041
7.000000 73.446 -62.1407
7.100000 73.567 -62.6688
7.200000 73.685 -63.1912
7.300000 73.800 -63.6985
7.400000 73.913 -64.1803
7.500000 74.023 -64.6341
7.620000 74.151 -65.1467
7.750000 74.291 -65.6583
7.880000 74.431 -66.1169
8.000000 74.563 -66.5039
8.120000 74.701 -66.8710
8.250000 74.858 -67.2305
8.380000 75.023 -67.5927
8.500000 75.184 -67.9573
8.620000 75.353 -68.3376
8.750000 75.540 -68.8121
8.850000 75.688 -69.2328
9.000000 75.912 -69.9422
9.120000 76.087 -70.5886
9.250000 76.273 -71.3773
9.380000 76.452 -72.2328
9.500000 76.605 -73.0670
9.620000 76.748 -73.9541
9.750000 76.891 -74.9263
9.880000 77.019 -75.8963
10.000000 77.126 -76.7907
10.150000 77.247 -77.8512
10.300000 77.353 -78.8538
10.440000 77.445 -79.7198
10.600000 77.544 -80.6103
10.750000 77.634 -81.3677
10.900000 77.727 -82.0532
11.060000 77.829 -82.7199
11.200000 77.923 -83.2807
11.380000 78.049 -83.9673
11.500000 78.136 -84.4321
11.720000 78.297 -85.2934
11.800000 78.355 -85.6123
12.060000 78.537 -86.6736
12.200000 78.628 -87.2367
12.410000 78.757 -88.0623
12.500000 78.810 -88.3921
12.650000 78.894 -88.9145
12.800000 78.977 -89.3904
13.150000 79.173 -90.3041
13.200000 79.203 -90.4154
13.400000 79.329 -90.8234
13.600000 79.467 -91.2169
13.800000 79.617 -91.6176
14.000000 79.776 -92.0682
14.300000 80.022 -92.8787
14.500000 80.185 -93.5147
14.750000 80.378 -94.4118
15.000000 80.553 -95.3731
15.250000 80.710 -96.3525
15.500000 80.850 -97.3098
15.750000 80.976 -98.2071
16.000000 81.094 -99.0293
16.250000 81.209 -99.7826
16.500000 81.323 -100.4793
16.750000 81.440 -101.1429
17.000000 81.559 -101.7983
17.250000 81.677 -102.4563
17.500000 81.792 -103.1223
17.750000 81.903 -103.7909
18.000000 82.007 -104.4445
18.250000 82.107 -105.0691
18.500000 82.203 -105.6526
18.750000 82.299 -106.1889
19.000000 82.399 -106.6898
19.250000 82.503 -107.1726
19.500000 82.612 -107.6582
19.750000 82.725 -108.1733
20.000000 82.839 -108.7291
20.299999 82.970 -109.4488
20.600000 83.093 -110.2060
20.900000 83.205 -110.9655
21.200001 83.308 -111.6944
21.400000 83.375 -112.1554
21.799999 83.510 -113.0421
22.000000 83.579 -113.4877
22.400000 83.716 -114.4254
22.700001 83.811 -115.1839
23.000000 83.891 -115.9632
23.299999 83.956 -116.7114
23.600000 84.007 -117.3699
24.000000 84.071 -118.0456
24.299999 84.129 -118.4206
24.700001 84.235 -118.8575
25.000000 84.333 -119.2398
25.400000 84.473 -119.9147
25.799999 84.599 -120.7644
26.200001 84.700 -121.6700
26.500000 84.761 -122.3083
26.900000 84.837 -123.0662
27.200001 84.897 -123.5849
27.600000 84.985 -124.2798
28.000000 85.073 -125.0281
28.500000 85.171 -126.0182
29.000000 85.254 -126.9669
29.500000 85.337 -127.8425
30.000000 85.425 -128.7198
30.400000 85.492 -129.4519
30.700001 85.537 -129.9966
31.100000 85.591 -130.6696
31.500000 85.649 -131.2587
32.000000 85.741 -131.9531
32.500000 85.851 -132.7625
33.000000 85.953 -133.7646
33.500000 86.019 -134.8388
34.000000 86.052 -135.7617
34.500000 86.079 -136.4125
35.000000 86.133 -136.8706
35.500000 86.224 -137.3445
36.000000 86.334 -138.0247
36.500000 86.429 -138.9498
37.000000 86.485 -139.9760
37.500000 86.506 -140.8964
38.200001 86.523 -141.8629
38.700001 86.549 -142.4535
39.500000 86.595 -143.4773
40.000000 86.612 -144.0740
40.599998 86.642 -144.6489
41.200001 86.704 -145.2450
41.799999 86.776 -146.0801
42.500000 86.823 -147.2723
43.099998 86.828 -148.1911
43.700001 86.833 -148.9045
44.400002 86.868 -149.6763
45.000000 86.909 -150.4647
45.500000 86.932 -151.1812
46.200001 86.952 -152.0997
46.799999 86.982 -152.8241
47.500000 87.023 -153.8582
48.200001 87.008 -154.9665
48.700001 86.968 -155.4395
49.400002 86.969 -155.5546
50.000000 87.070 -155.7512
50.799999 87.218 -156.9066
51.500000 87.244 -158.2099
52.200001 87.221 -159.0895
53.000000 87.227 -159.8301
53.799999 87.234 -160.7115
54.500000 87.213 -161.3995
55.200001 87.196 -161.9071
56.000000 87.202 -162.5034
57.000000 87.202 -163.4348
58.000000 87.180 -164.3240
59.000000 87.162 -165.1319
60.000000 87.151 -165.9425
60.799999 87.147 -166.5854
61.500000 87.149 -167.1927
62.200001 87.144 -167.8425
63.000000 87.128 -168.5385
64.000000 87.113 -169.3103
65.000000 87.103 -170.0918
66.000000 87.088 -170.8231
67.000000 87.079 -171.5141
68.000000 87.066 -172.2451
69.000000 87.037 -172.9491
70.000000 87.002 -173.5356
71.000000 86.976 -174.0874
72.000000 86.948 -174.7170
73.000000 86.907 -175.3097
74.000000 86.873 -175.8318
75.000000 86.851 -176.3914
76.199997 86.823 -177.1055
77.500000 86.790 -177.8266
78.800003 86.761 -178.4889
80.000000 86.733 -179.1127
81.199997 86.692 -179.7435
82.500000 86.636 179.6487
83.800003 86.591 179.0779
85.000000 86.550 178.4666
86.199997 86.500 177.8929
87.500000 86.452 177.3588
88.500000 86.419 176.9666
90.000000 86.369 176.4303
91.199997 86.332 176.0314
92.500000 86.294 175.5664
93.800003 86.251 175.0694
95.000000 86.203 174.6431
96.199997 86.154 174.3156
97.500000 86.111 174.0480
98.800003 86.081 173.7927
100.000000 86.054 173.4280
101.500000 85.987 172.8722
103.000000 85.904 172.4301
104.400002 85.841 172.0505
106.000000 85.785 171.5924
107.500000 85.739 171.1801
109.000000 85.693 170.8057
110.599998 85.635 170.4599
112.000000 85.580 170.1960
113.800003 85.509 169.8626
115.000000 85.464 169.6346
117.199997 85.392 169.2253
118.000000 85.368 169.0757
120.599998 85.283 168.6255
122.000000 85.235 168.4247
124.099998 85.163 168.0877
125.000000 85.131 167.9300
126.500000 85.079 167.6747
128.000000 85.031 167.4120
131.500000 84.906 166.8562
132.000000 84.888 166.7993
134.000000 84.816 166.5841
136.000000 84.747 166.3802
138.000000 84.681 166.1804
140.000000 84.609 166.0170
143.000000 84.499 165.8633
145.000000 84.429 165.7069
147.500000 84.341 165.4138
150.000000 84.251 165.1487
152.500000 84.168 165.0015
155.000000 84.099 164.8725
157.500000 84.036 164.6753
160.000000 83.967 164.4764
162.500000 83.894 164.3463
165.000000 83.824 164.2570
167.500000 83.759 164.1763
170.000000 83.698 164.0831
172.500000 83.632 164.0161
175.000000 83.570 163.9689
177.500000 83.507 163.8910
180.000000 83.443 163.8158
182.500000 83.379 163.7545
185.000000 83.319 163.7148
187.500000 83.262 163.6979
190.000000 83.204 163.7003
192.500000 83.149 163.6653
195.000000 83.099 163.5650
197.500000 83.052 163.5018
200.000000 83.005 163.5428
203.000000 82.935 163.6631
206.000000 82.849 163.7518
209.000000 82.770 163.8643
212.000000 82.708 163.9011
214.000000 82.667 163.9296
218.000000 82.597 164.0524
220.000000 82.559 164.0966
224.000000 82.467 164.1514
227.000000 82.406 164.2224
230.000000 82.352 164.3176
233.000000 82.297 164.4090
236.000000 82.242 164.5188
240.000000 82.183 164.7105
243.000000 82.154 164.8381
247.000000 82.109 164.8779
250.000000 82.057 164.8978
254.000000 81.991 164.9273
258.000000 81.916 165.0239
262.000000 81.837 165.1846
265.000000 81.784 165.3300
269.000000 81.719 165.5776
272.000000 81.668 165.8050
276.000000 81.601 166.1645
280.000000 81.545 166.5306
285.000000 81.493 167.0721
290.000000 81.466 167.7014
295.000000 81.491 168.1360
300.000000 81.538 168.3990
304.000000 81.540 168.4674
307.000000 81.534 168.4049
311.000000 81.520 168.1977
315.000000 81.489 168.0068
320.000000 81.436 167.8766
325.000000 81.373 167.8443
330.000000 81.305 167.8879
335.000000 81.233 167.9594
340.000000 81.164 168.0821
345.000000 81.098 168.3193
350.000000 81.032 168.5797
355.000000 80.965 168.7179
360.000000 80.900 168.8828
365.000000 80.841 169.0963
370.000000 80.790 169.2804
375.000000 80.739 169.4608
382.000000 80.671 169.7241
387.000000 80.625 169.9309
395.000000 80.550 170.3406
400.000000 80.500 170.6031
406.000000 80.448 170.8239
412.000000 80.393 171.0628
418.000000 80.334 171.3604
425.000000 80.266 171.7230
431.000000 80.207 172.0517
437.000000 80.147 172.3926
444.000000 80.071 172.7475
450.000000 80.007 173.0574
455.000000 79.964 173.3453
462.000000 79.908 173.7257
468.000000 79.857 174.0258
475.000000 79.797 174.4065
482.000000 79.742 174.8058
487.000000 79.705 175.0928
494.000000 79.656 175.5023
500.000000 79.614 175.8276
508.000000 79.554 176.2177
515.000000 79.505 176.5907
522.000000 79.457 176.9835
530.000000 79.405 177.4077
538.000000 79.363 177.7988
545.000000 79.323 178.1550
552.000000 79.283 178.5258
560.000000 79.241 178.9658
570.000000 79.187 179.5211
580.000000 79.127 -179.9227
590.000000 79.065 -179.3858
600.000000 79.007 -178.8598
608.000000 78.966 -178.3760
615.000000 78.932 -177.9748
622.000000 78.897 -177.6068
630.000000 78.857 -177.1838
640.000000 78.807 -176.6474
650.000000 78.752 -176.0691
660.000000 78.692 -175.4931
670.000000 78.632 -174.9092
680.000000 78.575 -174.2993
690.000000 78.518 -173.6682
700.000000 78.464 -173.0232
710.000000 78.417 -172.4000
720.000000 78.373 -171.7914
730.000000 78.323 -171.1989
740.000000 78.270 -170.5728
750.000000 78.219 -169.9168
762.000000 78.167 -169.1594
775.000000 78.109 -168.3294
788.000000 78.047 -167.4763
800.000000 77.990 -166.6798
812.000000 77.934 -165.8330
825.000000 77.873 -164.9335
838.000000 77.820 -164.0298
850.000000 77.768 -163.1657
862.000000 77.710 -162.2532
875.000000 77.649 -161.2004
885.000000 77.604 -160.3996
900.000000 77.541 -159.2111
912.000000 77.490 -158.2274
925.000000 77.439 -157.1164
938.000000 77.392 -155.9942
950.000000 77.352 -154.9265
962.000000 77.313 -153.8275
975.000000 77.275 -152.6339
988.000000 77.237 -151.3976
1000.000000 77.203 -150.2206
1015.000000 77.170 -148.7263
1030.000000 77.149 -147.2050
1044.000000 77.129 -145.7421
1060.000000 77.111 -144.0432
1075.000000 77.101 -142.4153
1090.000000 77.099 -140.7206
1106.000000 77.107 -138.8860
1120.000000 77.123 -137.2768
1138.000000 77.150 -135.2056
1150.000000 77.174 -133.8009
1172.000000 77.244 -131.1586
1180.000000 77.277 -130.1964
1206.000000 77.406 -127.0804
1220.000000 77.486 -125.4166
1241.000000 77.616 -122.9037
1250.000000 77.677 -121.8397
1265.000000 77.785 -120.0958
1280.000000 77.900 -118.3670
1315.000000 78.203 -114.2729
1320.000000 78.251 -113.6803
1340.000000 78.466 -111.3071
1360.000000 78.706 -109.0337
1380.000000 78.958 -106.8620
1400.000000 79.224 -104.7130
1430.000000 79.658 -101.5722
1450.000000 79.969 -99.6024
1475.000000 80.369 -97.3085
1500.000000 80.782 -95.1768
1525.000000 81.212 -93.1523
1550.000000 81.668 -91.2936
1575.000000 82.132 -89.6795
1600.000000 82.606 -88.2226
1625.000000 83.091 -86.9105
1650.000000 83.587 -85.7423
1675.000000 84.107 -84.7256
1700.000000 84.637 -84.0046
1725.000000 85.154 -83.5293
1750.000000 85.663 -83.1694
1775.000000 86.173 -82.9652
1800.000000 86.678 -82.9016
1825.000000 87.185 -82.9333
1850.000000 87.698 -83.1329
1875.000000 88.207 -83.4999
1900.000000 88.715 -84.0118
1925.000000 89.221 -84.6909
1950.000000 89.723 -85.5221
1975.000000 90.222 -86.5311
2000.000000 90.711 -87.7384
2030.000000 91.282 -89.4159
2060.000000 91.837 -91.3251
2090.000000 92.373 -93.4757
2120.000000 92.887 -95.8545
2140.000000 93.217 -97.5790
2180.000000 93.834 -101.3789
2200.000000 94.118 -103.4254
2240.000000 94.637 -107.7963
2270.000000 94.973 -111.2994
2300.000000 95.261 -114.9442
2330.000000 95.497 -118.6987
2360.000000 95.681 -122.5160
2400.000000 95.840 -127.6565
2430.000000 95.884 -131.4714
2470.000000 95.844 -136.2254
2500.000000 95.763 -139.3654
2540.000000 95.650 -142.9316
2580.000000 95.592 -146.2076
2620.000000 95.558 -149.7912
2650.000000 95.497 -152.7243
2690.000000 95.333 -156.6713
2720.000000 95.152 -159.4677
2760.000000 94.854 -162.8204
2800.000000 94.522 -165.7348
2850.000000 94.084 -168.8387
2900.000000 93.633 -171.4333
2950.000000 93.179 -173.5351
3000.000000 92.734 -175.1812
3040.000000 92.398 -176.2346
3070.000000 92.158 -176.9209
3110.000000 91.851 -177.7455
3150.000000 91.549 -178.4596
3200.000000 91.185 -179.1677
3250.000000 90.836 -179.7139
3300.000000 90.503 179.8649
3350.000000 90.181 179.5304
3400.000000 89.863 179.2785
3450.000000 89.548 179.1811
3500.000000 89.249 179.2488
3550.000000 88.968 179.3969
3600.000000 88.696 179.5829
3650.000000 88.429 179.8686
3700.000000 88.178 -179.7481
3750.000000 87.945 -179.3479
3820.000000 87.624 -178.8042
3870.000000 87.388 -178.3329
3950.000000 87.024 -177.3040
4000.000000 86.815 -176.5552
4060.000000 86.581 -175.5777
4120.000000 86.366 -174.5068
4180.000000 86.174 -173.3701
4250.000000 85.976 -172.0635
4310.000000 85.811 -170.9508
4370.000000 85.655 -169.7303
4440.000000 85.504 -168.1944
4500.000000 85.404 -166.9177
4550.000000 85.325 -165.8900
4620.000000 85.223 -164.3787
4680.000000 85.159 -163.0436
4750.000000 85.109 -161.5107
4820.000000 85.080 -159.9448
4870.000000 85.082 -158.7987
4940.000000 85.126 -157.2902
5000.000000 85.186 -156.1805
5080.000000 85.281 -154.8900
5150.000000 85.385 -153.9125
5220.000000 85.510 -153.1555
5300.000000 85.656 -152.5962
5380.000000 85.794 -152.2763
5450.000000 85.909 -152.1924
5520.000000 86.006 -152.2686
5600.000000 86.096 -152.4114
5700.000000 86.194 -152.6160
5800.000000 86.293 -152.8302
5900.000000 86.413 -153.2235
6000.000000 86.524 -153.9196
6080.000000 86.595 -154.5288
6150.000000 86.661 -154.9957
6220.000000 86.766 -155.3756
6300.000000 86.987 -156.1740
6400.000000 87.291 -158.9244
6500.000000 87.342 -163.3873
6600.000000 87.031 -167.6052
6700.000000 86.523 -170.0348
6800.000000 86.059 -170.8247
6900.000000 85.756 -171.0605
7000.000000 85.570 -171.6575
7100.000000 85.404 -172.8618
7200.000000 85.186 -174.5182
7300.000000 84.880 -176.2780
7400.000000 84.492 -177.7992
7500.000000 84.054 -178.8487
7620.000000 83.519 -179.5671
7750.000000 82.945 -179.8779
7880.000000 82.370 -179.6947
8000.000000 81.869 -178.9994
8120.000000 81.422 -178.0364
8250.000000 80.993 -176.8065
8380.000000 80.619 -175.5087
8500.000000 80.308 -174.2730
8620.000000 80.023 -172.9685
8750.000000 79.761 -171.4265
8850.000000 79.607 -170.2886
9000.000000 79.423 -168.8305
9120.000000 79.297 -167.8492
9250.000000 79.172 -166.9427
9380.000000 79.036 -166.0754
9500.000000 78.914 -165.0941
9620.000000 78.831 -163.9444
9750.000000 78.804 -162.6621
9880.000000 78.844 -161.4881
10000.000000 78.927 -160.6134
10150.000000 79.076 -159.7772
10300.000000 79.281 -159.1943
10440.000000 79.530 -158.9210
10600.000000 79.872 -159.0832
10750.000000 80.227 -159.6923
10900.000000 80.617 -160.6187
11060.000000 81.099 -161.8866
11200.000000 81.619 -163.2873
11380.000000 82.452 -165.9957
11500.000000 83.103 -168.6678
11720.000000 84.432 -176.3009
11800.000000 84.917 179.7571
12060.000000 86.136 161.9978
12200.000000 86.363 149.9806
12410.000000 85.986 131.6639
12500.000000 85.598 124.5444
12650.000000 84.764 114.1170
12800.000000 83.797 105.4236
13150.000000 81.474 91.1498
13200.000000 81.178 89.6031
13400.000000 80.134 83.8553
13600.000000 79.262 78.3610
13800.000000 78.507 73.1051
14000.000000 77.891 67.9733
14300.000000 77.254 59.6419
14500.000000 76.975 53.3358
14750.000000 76.762 44.5728
15000.000000 76.706 34.5197
15250.000000 76.771 22.9197
15500.000000 76.949 9.6895
15750.000000 77.256 -5.4313
16000.000000 77.702 -22.9366
16250.000000 78.270 -43.5508
16500.000000 78.868 -68.3334
16750.000000 79.272 -98.1638
17000.000000 79.176 -132.5377
17250.000000 78.420 -169.0779
17500.000000 77.110 154.5833
17750.000000 75.517 119.0870
18000.000000 73.911 83.4166
18250.000000 72.435 45.9945
18500.000000 71.115 5.5328
18750.000000 69.938 -39.2642
19000.000000 68.869 -89.8802
19250.000000 67.847 -147.9395
19500.000000 66.781 145.8717
19750.000000 65.651 78.2124
