* Measurement data measured by REW V5.20.9
* Source: Headset (USB-C to 3.5mm Headphone Jack Adapter), MICROPHONE (Master Volume), L, volume: 0.260. Timing signal peak level -26.1 dBFS, measurement signal peak level -18.6 dBFS
* Format: 256k Log Swept Sine, 1 sweep at -12.0 dBFS using an acoustic timing reference
* Dated: 18/03/2024 9:21:17 PM
* REW Settings:
*  C-weighting compensation: Off
*  Target level: 75.0 dB
* Note: ; Delay -0.0300 ms (-10 mm, -0.41 in) using estimated IR delay relative to Acoustic reference on SPEAKER R with no timing offset
* Measurement: Maestro Mini R
* Smoothing: 1/24 octave
* Frequency Step: 1/48 octave
* Start Frequency: 1.000 Hz
*
* Freq(Hz) SPL(dB) Phase(degrees)
1.000000 68.441 -132.6698
1.015000 68.660 -134.2243
1.030000 68.878 -135.7224
1.044000 69.078 -137.0642
1.060000 69.303 -138.5247
1.075000 69.511 -139.8170
1.090000 69.714 -141.0288
1.106000 69.927 -142.2262
1.120000 70.111 -143.1930
1.138000 70.346 -144.3330
1.150000 70.500 -145.0332
1.172000 70.781 -146.2041
1.180000 70.882 -146.5966
1.206000 71.208 -147.7645
1.220000 71.381 -148.3328
1.241000 71.638 -149.1191
1.250000 71.747 -149.4352
1.265000 71.928 -149.9390
1.280000 72.107 -150.4192
1.315000 72.520 -151.4809
1.320000 72.578 -151.6291
1.340000 72.810 -152.2220
1.360000 73.039 -152.8257
1.380000 73.266 -153.4541
1.400000 73.491 -154.1214
1.430000 73.824 -155.2261
1.450000 74.043 -156.0522
1.475000 74.315 -157.2031
1.500000 74.583 -158.4328
1.525000 74.846 -159.7177
1.550000 75.106 -161.0475
1.575000 75.362 -162.4121
1.600000 75.614 -163.8013
1.625000 75.863 -165.2051
1.650000 76.108 -166.6132
1.675000 76.349 -168.0154
1.700000 76.587 -169.4017
1.725000 76.822 -170.7620
1.750000 77.053 -172.0859
1.775000 77.282 -173.3634
1.800000 77.507 -174.5843
1.825000 77.729 -175.7385
1.850000 77.948 -176.8233
1.875000 78.163 -177.8543
1.900000 78.375 -178.8378
1.925000 78.583 -179.7796
1.950000 78.787 179.3148
1.975000 78.989 178.4396
2.000000 79.187 177.5892
2.030000 79.420 176.5936
2.060000 79.650 175.6158
2.090000 79.875 174.6459
2.120000 80.097 173.6744
2.140000 80.243 173.0208
2.180000 80.530 171.6867
2.200000 80.672 171.0005
2.240000 80.950 169.6131
2.270000 81.153 168.5702
2.300000 81.352 167.5272
2.330000 81.547 166.4862
2.360000 81.738 165.4489
2.400000 81.988 164.0747
2.430000 82.171 163.0532
2.470000 82.411 161.7069
2.500000 82.587 160.7112
2.540000 82.818 159.4059
2.580000 83.045 158.1284
2.620000 83.265 156.8677
2.650000 83.426 155.9322
2.690000 83.636 154.6998
2.720000 83.790 153.7879
2.760000 83.991 152.5900
2.800000 84.188 151.4146
2.850000 84.427 149.9799
2.900000 84.661 148.5873
2.950000 84.890 147.2420
3.000000 85.112 145.9541
3.040000 85.284 144.9604
3.070000 85.410 144.2328
3.110000 85.575 143.2817
3.150000 85.736 142.3474
3.200000 85.934 141.1944
3.250000 86.127 140.0478
3.300000 86.318 138.8968
3.350000 86.503 137.7381
3.400000 86.684 136.5804
3.450000 86.859 135.4319
3.500000 87.031 134.3008
3.550000 87.199 133.1954
3.600000 87.364 132.1238
3.650000 87.527 131.0944
3.700000 87.688 130.1158
3.750000 87.846 129.1873
3.820000 88.060 127.9516
3.870000 88.211 127.1001
3.950000 88.447 125.7619
4.000000 88.592 124.9238
4.060000 88.764 123.9026
4.120000 88.933 122.8788
4.180000 89.100 121.8605
4.250000 89.290 120.6875
4.310000 89.451 119.7015
4.370000 89.610 118.7396
4.440000 89.792 117.6562
4.500000 89.947 116.7614
4.550000 90.073 116.0336
4.620000 90.248 115.0319
4.680000 90.395 114.1801
4.750000 90.563 113.1825
4.820000 90.728 112.1756
4.870000 90.844 111.4565
4.940000 91.004 110.4532
5.000000 91.138 109.5992
5.080000 91.313 108.4734
5.150000 91.462 107.5042
5.220000 91.607 106.5484
5.300000 91.769 105.4700
5.380000 91.927 104.4055
5.450000 92.061 103.4845
5.520000 92.191 102.5725
5.600000 92.335 101.5404
5.700000 92.510 100.2682
5.800000 92.677 99.0190
5.900000 92.839 97.7960
6.000000 92.995 96.5967
6.080000 93.114 95.6550
6.150000 93.217 94.8452
6.220000 93.317 94.0495
6.300000 93.429 93.1592
6.400000 93.564 92.0734
6.500000 93.696 91.0119
6.600000 93.824 89.9687
6.700000 93.949 88.9446
6.800000 94.071 87.9410
6.900000 94.190 86.9548
7.000000 94.307 85.9840
7.100000 94.421 85.0325
7.200000 94.533 84.0961
7.300000 94.642 83.1685
7.400000 94.748 82.2462
7.500000 94.853 81.3326
7.620000 94.974 80.2471
7.750000 95.101 79.0833
7.880000 95.224 77.9326
8.000000 95.333 76.8819
8.120000 95.438 75.8420
8.250000 95.548 74.7270
8.380000 95.652 73.6266
8.500000 95.746 72.6258
8.620000 95.835 71.6384
8.750000 95.928 70.5842
8.850000 95.998 69.7846
9.000000 96.099 68.6040
9.120000 96.176 67.6735
9.250000 96.258 66.6779
9.380000 96.338 65.6963
9.500000 96.409 64.7999
9.620000 96.478 63.9119
9.750000 96.551 62.9602
9.880000 96.622 62.0169
10.000000 96.686 61.1523
10.150000 96.762 60.0813
10.300000 96.835 59.0218
10.440000 96.901 58.0427
10.600000 96.973 56.9372
10.750000 97.037 55.9149
10.900000 97.099 54.9061
11.060000 97.162 53.8472
11.200000 97.214 52.9353
11.380000 97.280 51.7813
11.500000 97.322 51.0239
11.720000 97.397 49.6569
11.800000 97.424 49.1660
12.060000 97.507 47.5929
12.200000 97.550 46.7570
12.410000 97.612 45.5184
12.500000 97.638 44.9929
12.650000 97.679 44.1237
12.800000 97.718 43.2646
13.150000 97.802 41.3026
13.200000 97.813 41.0281
13.400000 97.855 39.9442
13.600000 97.895 38.8850
13.800000 97.932 37.8516
14.000000 97.968 36.8416
14.300000 98.017 35.3683
14.500000 98.049 34.4091
14.750000 98.086 33.2311
15.000000 98.121 32.0739
15.250000 98.152 30.9351
15.500000 98.180 29.8161
15.750000 98.205 28.7181
16.000000 98.225 27.6429
16.250000 98.243 26.5912
16.500000 98.258 25.5624
16.750000 98.271 24.5549
17.000000 98.282 23.5657
17.250000 98.290 22.5933
17.500000 98.297 21.6358
17.750000 98.301 20.6929
18.000000 98.304 19.7645
18.250000 98.304 18.8507
18.500000 98.303 17.9518
18.750000 98.300 17.0673
19.000000 98.295 16.1968
19.250000 98.289 15.3397
19.500000 98.282 14.4965
19.750000 98.274 13.6674
20.000000 98.264 12.8536
20.299999 98.252 11.8973
20.600000 98.238 10.9622
20.900000 98.224 10.0458
21.200001 98.209 9.1453
21.400000 98.198 8.5529
21.799999 98.175 7.3885
22.000000 98.162 6.8185
22.400000 98.134 5.7071
22.700001 98.112 4.8998
23.000000 98.089 4.1118
23.299999 98.065 3.3373
23.600000 98.041 2.5727
24.000000 98.004 1.5702
24.299999 97.973 0.8395
24.700001 97.929 -0.0927
25.000000 97.896 -0.7571
25.400000 97.853 -1.6089
25.799999 97.815 -2.4523
26.200001 97.779 -3.3148
26.500000 97.749 -3.9755
26.900000 97.705 -4.8590
27.200001 97.668 -5.5080
27.600000 97.616 -6.3428
28.000000 97.563 -7.1447
28.500000 97.499 -8.1140
29.000000 97.434 -9.0459
29.500000 97.372 -9.9327
30.000000 97.316 -10.7968
30.400000 97.273 -11.4945
30.700001 97.238 -12.0192
31.100000 97.187 -12.6886
31.500000 97.133 -13.2879
32.000000 97.078 -13.9406
32.500000 97.042 -14.6016
33.000000 97.013 -15.4096
33.500000 96.962 -16.3441
34.000000 96.876 -17.2157
34.500000 96.777 -17.8665
35.000000 96.692 -18.3360
35.500000 96.631 -18.8019
36.000000 96.578 -19.3734
36.500000 96.516 -20.0075
37.000000 96.444 -20.6091
37.500000 96.374 -21.1591
38.200001 96.285 -21.9386
38.700001 96.221 -22.5302
39.500000 96.110 -23.4400
40.000000 96.043 -23.9658
40.599998 95.969 -24.5923
41.200001 95.896 -25.2333
41.799999 95.820 -25.8622
42.500000 95.729 -26.5502
43.099998 95.652 -27.1057
43.700001 95.575 -27.6381
44.400002 95.485 -28.2318
45.000000 95.408 -28.7220
45.500000 95.342 -29.1196
46.200001 95.249 -29.6524
46.799999 95.170 -30.0883
47.500000 95.079 -30.5953
48.200001 94.983 -31.0944
48.700001 94.913 -31.4149
49.400002 94.823 -31.8070
50.000000 94.757 -32.1582
50.799999 94.672 -32.7312
51.500000 94.585 -33.2610
52.200001 94.492 -33.7266
53.000000 94.390 -34.2016
53.799999 94.293 -34.6669
54.500000 94.208 -35.0575
55.200001 94.124 -35.4297
56.000000 94.031 -35.8438
57.000000 93.914 -36.3401
58.000000 93.798 -36.8102
59.000000 93.683 -37.2588
60.000000 93.570 -37.6902
60.799999 93.479 -38.0223
61.500000 93.400 -38.3029
62.200001 93.322 -38.5769
63.000000 93.233 -38.8840
64.000000 93.123 -39.2538
65.000000 93.014 -39.6091
66.000000 92.905 -39.9500
67.000000 92.797 -40.2669
68.000000 92.692 -40.5674
69.000000 92.588 -40.8630
70.000000 92.485 -41.1496
71.000000 92.382 -41.4285
72.000000 92.280 -41.6947
73.000000 92.178 -41.9413
74.000000 92.079 -42.1776
75.000000 91.980 -42.4064
76.199997 91.862 -42.6649
77.500000 91.735 -42.9259
78.800003 91.610 -43.1687
80.000000 91.495 -43.3804
81.199997 91.383 -43.5875
82.500000 91.262 -43.8032
83.800003 91.143 -43.9981
85.000000 91.035 -44.1608
86.199997 90.929 -44.3115
87.500000 90.813 -44.4652
88.500000 90.724 -44.5739
90.000000 90.592 -44.7239
91.199997 90.488 -44.8408
92.500000 90.377 -44.9572
93.800003 90.269 -45.0607
95.000000 90.171 -45.1462
96.199997 90.073 -45.2194
97.500000 89.967 -45.2842
98.800003 89.860 -45.3217
100.000000 89.765 -45.3480
101.500000 89.648 -45.4176
103.000000 89.527 -45.4932
104.400002 89.416 -45.5447
106.000000 89.291 -45.5774
107.500000 89.176 -45.5774
109.000000 89.063 -45.5617
110.599998 88.944 -45.5498
112.000000 88.839 -45.5396
113.800003 88.704 -45.5179
115.000000 88.614 -45.4923
117.199997 88.451 -45.4037
118.000000 88.393 -45.3600
120.599998 88.204 -45.1858
122.000000 88.103 -45.0763
124.099998 87.954 -44.8861
125.000000 87.891 -44.7944
126.500000 87.786 -44.6246
128.000000 87.682 -44.4298
131.500000 87.442 -43.8483
132.000000 87.409 -43.7466
134.000000 87.279 -43.2940
136.000000 87.159 -42.8240
138.000000 87.045 -42.3105
140.000000 86.947 -41.7145
143.000000 86.844 -40.7501
145.000000 86.801 -40.1714
147.500000 86.773 -39.6865
150.000000 86.756 -39.4588
152.500000 86.750 -39.3779
155.000000 86.727 -39.4910
157.500000 86.665 -39.6837
160.000000 86.574 -39.8678
162.500000 86.468 -39.9978
165.000000 86.354 -40.0659
167.500000 86.236 -40.0659
170.000000 86.116 -39.9569
172.500000 86.002 -39.7777
175.000000 85.889 -39.5829
177.500000 85.777 -39.3583
180.000000 85.669 -39.1001
182.500000 85.566 -38.8245
185.000000 85.464 -38.5449
187.500000 85.365 -38.2560
190.000000 85.271 -37.9495
192.500000 85.184 -37.6180
195.000000 85.101 -37.2720
197.500000 85.022 -36.9603
200.000000 84.942 -36.7197
203.000000 84.837 -36.3932
206.000000 84.739 -35.9519
209.000000 84.645 -35.5337
212.000000 84.552 -35.1523
214.000000 84.492 -34.9001
218.000000 84.368 -34.3698
220.000000 84.305 -34.0865
224.000000 84.183 -33.4458
227.000000 84.103 -32.9327
230.000000 84.028 -32.4858
233.000000 83.949 -32.0981
236.000000 83.868 -31.6707
240.000000 83.769 -30.9901
243.000000 83.694 -30.4227
247.000000 83.592 -29.5946
250.000000 83.522 -28.9558
254.000000 83.460 -28.1169
258.000000 83.426 -27.3000
262.000000 83.409 -26.5591
265.000000 83.409 -26.1150
269.000000 83.411 -25.6794
272.000000 83.395 -25.4081
276.000000 83.352 -25.0668
280.000000 83.303 -24.7473
285.000000 83.234 -24.3038
290.000000 83.159 -23.8021
295.000000 83.086 -23.2516
300.000000 83.019 -22.6632
304.000000 82.966 -22.1980
307.000000 82.928 -21.8489
311.000000 82.879 -21.3693
315.000000 82.835 -20.8787
320.000000 82.783 -20.2694
325.000000 82.735 -19.6680
330.000000 82.691 -19.0720
335.000000 82.649 -18.4830
340.000000 82.612 -17.9058
345.000000 82.580 -17.3502
350.000000 82.548 -16.7900
355.000000 82.513 -16.2201
360.000000 82.480 -15.6617
365.000000 82.451 -15.1173
370.000000 82.425 -14.5942
375.000000 82.401 -14.0957
382.000000 82.372 -13.4064
387.000000 82.353 -12.9114
395.000000 82.325 -12.1380
400.000000 82.307 -11.6777
406.000000 82.285 -11.1284
412.000000 82.266 -10.5751
418.000000 82.248 -10.0489
425.000000 82.229 -9.4527
431.000000 82.216 -8.9688
437.000000 82.203 -8.5009
444.000000 82.186 -7.9004
450.000000 82.174 -7.3983
455.000000 82.164 -6.9895
462.000000 82.151 -6.4360
468.000000 82.141 -5.9853
475.000000 82.129 -5.4725
482.000000 82.117 -4.9663
487.000000 82.109 -4.6117
494.000000 82.099 -4.1378
500.000000 82.091 -3.7408
508.000000 82.078 -3.1765
515.000000 82.067 -2.6871
522.000000 82.057 -2.2142
530.000000 82.047 -1.6826
538.000000 82.037 -1.1577
545.000000 82.029 -0.6987
552.000000 82.022 -0.2461
560.000000 82.013 0.2593
570.000000 82.002 0.8884
580.000000 81.990 1.5107
590.000000 81.980 2.1262
600.000000 81.970 2.7335
608.000000 81.965 3.2317
615.000000 81.961 3.6665
622.000000 81.956 4.0929
630.000000 81.951 4.5760
640.000000 81.943 5.1714
650.000000 81.934 5.7651
660.000000 81.931 6.3748
670.000000 81.930 6.9874
680.000000 81.928 7.5928
690.000000 81.927 8.1948
700.000000 81.928 8.7952
710.000000 81.929 9.3955
720.000000 81.930 9.9968
730.000000 81.934 10.5994
740.000000 81.939 11.1947
750.000000 81.946 11.7778
762.000000 81.958 12.4790
775.000000 81.973 13.2107
788.000000 81.985 13.8951
800.000000 81.982 14.5165
812.000000 81.967 15.2825
825.000000 81.985 16.2833
838.000000 82.022 17.0616
850.000000 82.027 17.8171
862.000000 82.053 18.7928
875.000000 82.122 19.7351
885.000000 82.178 20.3188
900.000000 82.254 21.1025
912.000000 82.313 21.6995
925.000000 82.376 22.3286
938.000000 82.439 22.9432
950.000000 82.497 23.4954
962.000000 82.556 24.0242
975.000000 82.621 24.5658
988.000000 82.688 25.0782
1000.000000 82.749 25.5305
1015.000000 82.826 26.0704
1030.000000 82.903 26.5786
1044.000000 82.974 27.0120
1060.000000 83.053 27.4628
1075.000000 83.126 27.8555
1090.000000 83.197 28.2194
1106.000000 83.268 28.5722
1120.000000 83.327 28.8559
1138.000000 83.399 29.2054
1150.000000 83.444 29.4279
1172.000000 83.521 29.8156
1180.000000 83.547 29.9502
1206.000000 83.628 30.3802
1220.000000 83.667 30.6105
1241.000000 83.720 30.9498
1250.000000 83.742 31.0957
1265.000000 83.776 31.3471
1280.000000 83.808 31.6019
1315.000000 83.877 32.2137
1320.000000 83.886 32.3037
1340.000000 83.921 32.6722
1360.000000 83.953 33.0594
1380.000000 83.985 33.4652
1400.000000 84.016 33.8837
1430.000000 84.062 34.5280
1450.000000 84.092 34.9789
1475.000000 84.131 35.5591
1500.000000 84.171 36.1566
1525.000000 84.211 36.7861
1550.000000 84.252 37.4323
1575.000000 84.298 38.0901
1600.000000 84.347 38.7602
1625.000000 84.399 39.4369
1650.000000 84.453 40.1152
1675.000000 84.509 40.7930
1700.000000 84.568 41.4788
1725.000000 84.628 42.1759
1750.000000 84.690 42.8784
1775.000000 84.757 43.5908
1800.000000 84.826 44.3155
1825.000000 84.898 45.0601
1850.000000 84.975 45.8216
1875.000000 85.058 46.5851
1900.000000 85.150 47.3523
1925.000000 85.251 48.1154
1950.000000 85.359 48.8472
1975.000000 85.469 49.5346
2000.000000 85.578 50.1946
2030.000000 85.705 50.9945
2060.000000 85.832 51.8643
2090.000000 85.968 52.8561
2120.000000 86.126 53.9888
2140.000000 86.252 54.8117
2180.000000 86.582 56.4848
2200.000000 86.789 57.2219
2240.000000 87.270 58.1834
2270.000000 87.651 58.3152
2300.000000 88.014 57.9734
2330.000000 88.339 57.2978
2360.000000 88.623 56.4320
2400.000000 88.950 55.1496
2430.000000 89.167 54.1470
2470.000000 89.430 52.7687
2500.000000 89.610 51.6950
2540.000000 89.830 50.1980
2580.000000 90.026 48.6210
2620.000000 90.195 46.9724
2650.000000 90.306 45.7047
2690.000000 90.433 43.9919
2720.000000 90.514 42.6967
2760.000000 90.607 40.9491
2800.000000 90.685 39.1380
2850.000000 90.754 36.7200
2900.000000 90.770 34.1399
2950.000000 90.715 31.5189
3000.000000 90.587 29.0194
3040.000000 90.437 27.2070
3070.000000 90.302 25.9994
3110.000000 90.100 24.6288
3150.000000 89.880 23.5472
3200.000000 89.599 22.5950
3250.000000 89.326 22.0544
3300.000000 89.074 21.8788
3350.000000 88.854 22.0107
3400.000000 88.676 22.3801
3450.000000 88.549 22.9091
3500.000000 88.480 23.5068
3550.000000 88.473 24.0431
3600.000000 88.527 24.3660
3650.000000 88.629 24.3109
3700.000000 88.753 23.7412
3750.000000 88.861 22.5988
3820.000000 88.913 20.1937
3870.000000 88.844 18.2282
3950.000000 88.553 15.5084
4000.000000 88.303 14.3994
4060.000000 88.001 13.7261
4120.000000 87.749 13.5970
4180.000000 87.578 13.7198
4250.000000 87.495 13.7467
4310.000000 87.509 13.2928
4370.000000 87.563 12.0633
4440.000000 87.592 9.3420
4500.000000 87.484 5.8899
4550.000000 87.225 2.5328
4620.000000 86.529 -1.7931
4680.000000 85.645 -3.8751
4750.000000 84.444 -3.2830
4820.000000 83.346 0.4633
4870.000000 82.765 4.3971
4940.000000 82.308 10.4554
5000.000000 82.202 15.3345
5080.000000 82.328 20.6876
5150.000000 82.568 24.1429
5220.000000 82.853 26.5713
5300.000000 83.177 28.3207
5380.000000 83.468 29.2258
5450.000000 83.681 29.5106
5520.000000 83.847 29.4730
5600.000000 83.979 29.1930
5700.000000 84.060 28.7196
5800.000000 84.065 28.3255
5900.000000 84.015 28.1778
6000.000000 83.931 28.3759
6080.000000 83.856 28.8051
6150.000000 83.795 29.3773
6220.000000 83.743 30.1250
6300.000000 83.703 31.1725
6400.000000 83.690 32.7242
6500.000000 83.730 34.4947
6600.000000 83.831 36.4137
6700.000000 84.000 38.4052
6800.000000 84.242 40.3975
6900.000000 84.564 42.3103
7000.000000 84.970 44.0466
7100.000000 85.463 45.4788
7200.000000 86.046 46.4485
7300.000000 86.711 46.7703
7400.000000 87.446 46.2408
7500.000000 88.233 44.5846
7620.000000 89.168 40.6044
7750.000000 89.977 33.4839
7880.000000 90.348 24.0826
8000.000000 90.189 14.9763
8120.000000 89.586 7.2090
8250.000000 88.611 1.4780
8380.000000 87.530 -1.4506
8500.000000 86.567 -2.2581
8620.000000 85.688 -1.7350
8750.000000 84.853 -0.1118
8850.000000 84.294 1.6679
9000.000000 83.580 5.0029
9120.000000 83.117 8.1316
9250.000000 82.726 11.8405
9380.000000 82.454 15.7505
9500.000000 82.310 19.4421
9620.000000 82.269 23.1134
9750.000000 82.346 26.9291
9880.000000 82.554 30.4083
10000.000000 82.859 33.1220
10150.000000 83.374 35.4572
10300.000000 83.977 36.1034
10440.000000 84.512 34.8059
10600.000000 84.923 31.1151
10750.000000 84.976 26.2930
10900.000000 84.650 21.5684
11060.000000 83.999 18.2659
11200.000000 83.393 16.7748
11380.000000 82.630 15.3414
11500.000000 82.064 14.7209
11720.000000 80.923 14.9501
11800.000000 80.501 15.4829
12060.000000 79.188 18.4976
12200.000000 78.529 20.7152
12410.000000 77.602 24.5866
12500.000000 77.225 26.4168
12650.000000 76.619 29.6810
12800.000000 76.040 33.2175
13150.000000 74.800 42.7361
13200.000000 74.638 44.2803
13400.000000 74.045 51.0869
13600.000000 73.610 59.0731
13800.000000 73.480 68.0338
14000.000000 73.795 77.0087
14300.000000 75.066 87.9757
14500.000000 76.284 92.3674
14750.000000 77.990 93.5883
15000.000000 79.640 89.5822
15250.000000 80.940 80.3550
15500.000000 81.583 66.9321
15750.000000 81.394 52.2537
16000.000000 80.519 39.6018
16250.000000 79.287 29.9781
16500.000000 77.923 23.0375
16750.000000 76.590 18.4091
17000.000000 75.451 15.3607
17250.000000 74.599 12.9211
17500.000000 74.061 10.1952
17750.000000 73.832 6.4427
18000.000000 73.894 0.9591
18250.000000 74.206 -6.9926
18500.000000 74.683 -18.1825
18750.000000 75.211 -33.2806
19000.000000 75.668 -52.9073
19250.000000 75.891 -77.7990
19500.000000 75.633 -107.8448
19750.000000 74.756 -138.6636
