* Measurement data measured by REW V5.20.9
* Source: USB-C to 3.5mm Headphone Jack Adapter, USB-C to 3.5mm Headphone Jack Adapter, 0, volume: 0.138
* Format: 256k Log Swept Sine, 1 sweep at -12.0 dBFS with no timing reference
* Dated: 27/08/2022 3:19:36 PM
* REW Settings:
*  C-weighting compensation: Off
*  Target level: 75.0 dB
* Note: ; 
* Measurement: Monarch MkII R
* Smoothing: 1/24 octave
* Frequency Step: 1/48 octave
* Start Frequency: 1.000 Hz
*
* Freq(Hz) SPL(dB) Phase(degrees)
1.000000 69.525 160.4959
1.015000 69.532 160.7459
1.030000 69.545 161.0449
1.044000 69.562 161.3692
1.060000 69.586 161.7880
1.075000 69.614 162.2223
1.090000 69.647 162.6921
1.106000 69.688 163.2266
1.120000 69.728 163.7183
1.138000 69.784 164.3764
1.150000 69.825 164.8277
1.172000 69.907 165.6716
1.180000 69.939 165.9814
1.206000 70.050 166.9872
1.220000 70.115 167.5215
1.241000 70.217 168.3029
1.250000 70.262 168.6274
1.265000 70.341 169.1508
1.280000 70.422 169.6481
1.315000 70.623 170.6791
1.320000 70.653 170.8090
1.340000 70.774 171.2778
1.360000 70.902 171.6741
1.380000 71.040 172.0403
1.400000 71.187 172.3788
1.430000 71.424 172.8345
1.450000 71.591 173.1030
1.475000 71.808 173.3987
1.500000 72.034 173.6496
1.525000 72.264 173.8552
1.550000 72.499 174.0149
1.575000 72.736 174.1285
1.600000 72.973 174.1953
1.625000 73.208 174.2150
1.650000 73.440 174.1871
1.675000 73.665 174.1111
1.700000 73.886 173.9820
1.725000 74.111 173.7891
1.750000 74.337 173.5362
1.775000 74.566 173.2281
1.800000 74.796 172.8698
1.825000 75.026 172.4659
1.850000 75.256 172.0212
1.875000 75.484 171.5406
1.900000 75.710 171.0289
1.925000 75.933 170.4909
1.950000 76.152 169.9313
1.975000 76.367 169.3550
2.000000 76.576 168.7668
2.030000 76.820 168.0478
2.060000 77.058 167.2801
2.090000 77.291 166.4596
2.120000 77.520 165.5933
2.140000 77.670 164.9938
2.180000 77.964 163.7518
2.200000 78.108 163.1133
2.240000 78.389 161.8122
2.270000 78.595 160.8234
2.300000 78.796 159.8313
2.330000 78.993 158.8430
2.360000 79.185 157.8652
2.400000 79.433 156.5451
2.430000 79.613 155.5338
2.470000 79.845 154.1639
2.500000 80.014 153.1252
2.540000 80.232 151.7320
2.580000 80.444 150.3375
2.620000 80.648 148.9503
2.650000 80.797 147.9199
2.690000 80.991 146.5662
2.720000 81.132 145.5622
2.760000 81.313 144.2245
2.800000 81.487 142.8904
2.850000 81.695 141.2329
2.900000 81.893 139.5922
2.950000 82.083 137.9744
3.000000 82.266 136.3857
3.040000 82.408 135.1390
3.070000 82.511 134.2124
3.110000 82.642 132.9864
3.150000 82.768 131.7740
3.200000 82.919 130.2823
3.250000 83.063 128.8226
3.300000 83.203 127.4010
3.350000 83.339 126.0236
3.400000 83.471 124.6936
3.450000 83.596 123.4060
3.500000 83.716 122.1579
3.550000 83.831 120.9471
3.600000 83.943 119.7713
3.650000 84.053 118.6281
3.700000 84.163 117.5153
3.750000 84.270 116.4358
3.820000 84.416 114.9856
3.870000 84.517 113.9896
3.950000 84.676 112.4570
4.000000 84.776 111.5329
4.060000 84.896 110.4557
4.120000 85.017 109.4277
4.180000 85.137 108.4438
4.250000 85.276 107.3368
4.310000 85.396 106.4105
4.370000 85.517 105.4933
4.440000 85.660 104.4411
4.500000 85.784 103.5649
4.550000 85.887 102.8474
4.620000 86.031 101.8545
4.680000 86.155 101.0067
4.750000 86.298 100.0159
4.820000 86.442 99.0346
4.870000 86.545 98.3382
4.940000 86.688 97.3663
5.000000 86.808 96.5328
5.080000 86.965 95.4162
5.150000 87.100 94.4352
5.220000 87.232 93.4535
5.300000 87.380 92.3339
5.380000 87.521 91.2208
5.450000 87.640 90.2493
5.520000 87.756 89.2777
5.600000 87.882 88.1748
5.700000 88.032 86.8205
5.800000 88.173 85.4975
5.900000 88.303 84.1974
6.000000 88.426 82.9349
6.080000 88.518 81.9615
6.150000 88.594 81.1324
6.220000 88.666 80.3242
6.300000 88.745 79.4300
6.400000 88.839 78.3628
6.500000 88.928 77.3543
6.600000 89.011 76.3999
6.700000 89.093 75.4957
6.800000 89.174 74.6422
6.900000 89.252 73.8433
7.000000 89.330 73.0854
7.100000 89.410 72.3562
7.200000 89.490 71.6674
7.300000 89.572 71.0073
7.400000 89.654 70.3556
7.500000 89.738 69.7121
7.620000 89.841 68.9552
7.750000 89.951 68.1239
7.880000 90.060 67.2737
8.000000 90.159 66.4763
8.120000 90.250 65.6609
8.250000 90.342 64.7508
8.380000 90.425 63.8366
8.500000 90.490 62.9988
8.620000 90.545 62.1605
8.750000 90.592 61.2999
8.850000 90.619 60.6762
9.000000 90.647 59.8044
9.120000 90.662 59.2077
9.250000 90.671 58.6624
9.380000 90.678 58.2219
9.500000 90.690 57.9231
9.620000 90.704 57.7283
9.750000 90.733 57.5841
9.880000 90.780 57.5096
10.000000 90.837 57.4884
10.150000 90.931 57.4101
10.300000 91.052 57.2969
10.440000 91.178 57.0730
10.600000 91.339 56.6351
10.750000 91.494 56.0546
10.900000 91.640 55.2733
11.060000 91.785 54.2584
11.200000 91.889 53.2605
11.380000 91.994 51.8346
11.500000 92.043 50.8851
11.720000 92.087 49.1327
11.800000 92.093 48.5467
12.060000 92.072 46.8304
12.200000 92.054 46.0763
12.410000 92.021 45.1613
12.500000 92.014 44.8255
12.650000 92.010 44.3595
12.800000 92.019 43.9178
13.150000 92.099 42.8395
13.200000 92.115 42.6554
13.400000 92.183 41.8457
13.600000 92.243 40.8994
13.800000 92.290 39.8664
14.000000 92.316 38.8176
14.300000 92.327 37.4117
14.500000 92.331 36.6371
14.750000 92.354 35.8830
15.000000 92.422 35.1963
15.250000 92.535 34.3698
15.500000 92.676 33.2341
15.750000 92.813 31.6414
16.000000 92.897 29.6581
16.250000 92.904 27.4904
16.500000 92.820 25.3847
16.750000 92.645 23.6950
17.000000 92.422 22.7351
17.250000 92.204 22.5632
17.500000 92.048 23.1209
17.750000 92.017 24.0823
18.000000 92.116 24.9149
18.250000 92.309 25.2912
18.500000 92.548 24.9662
18.750000 92.762 23.9062
19.000000 92.909 22.3498
19.250000 92.974 20.5364
19.500000 92.951 18.7218
19.750000 92.856 17.1740
20.000000 92.718 16.0049
20.299999 92.527 15.1355
20.600000 92.349 14.7653
20.900000 92.207 14.7157
21.200001 92.102 14.8146
21.400000 92.049 14.9127
21.799999 91.970 15.1837
22.000000 91.946 15.3660
22.400000 91.938 15.8148
22.700001 91.979 16.1534
23.000000 92.062 16.3877
23.299999 92.183 16.4192
23.600000 92.330 16.1795
24.000000 92.542 15.3985
24.299999 92.698 14.4856
24.700001 92.886 12.8936
25.000000 93.003 11.4801
25.400000 93.118 9.4109
25.799999 93.186 7.2863
26.200001 93.216 5.2628
26.500000 93.226 3.8657
26.900000 93.239 2.1475
27.200001 93.256 0.9126
27.600000 93.283 -0.7738
28.000000 93.299 -2.5812
28.500000 93.258 -4.9654
29.000000 93.113 -7.1670
29.500000 92.862 -8.7253
30.000000 92.558 -9.2376
30.400000 92.331 -8.8353
30.700001 92.203 -8.1589
31.100000 92.111 -6.9958
31.500000 92.109 -5.8675
32.000000 92.183 -4.9210
32.500000 92.263 -4.6072
33.000000 92.290 -4.6475
33.500000 92.267 -4.6718
34.000000 92.236 -4.5447
34.500000 92.234 -4.4351
35.000000 92.254 -4.5938
35.500000 92.265 -5.0962
36.000000 92.242 -5.8204
36.500000 92.182 -6.5898
37.000000 92.092 -7.2481
37.500000 91.988 -7.6642
38.200001 91.872 -7.7838
38.700001 91.836 -7.7043
39.500000 91.831 -7.6398
40.000000 91.842 -7.5885
40.599998 91.884 -7.5167
41.200001 91.954 -7.7536
41.799999 91.985 -8.4571
42.500000 91.911 -9.3664
43.099998 91.805 -9.8153
43.700001 91.722 -10.1882
44.400002 91.629 -10.9856
45.000000 91.508 -11.8503
45.500000 91.389 -12.4734
46.200001 91.245 -13.1669
46.799999 91.166 -13.7916
47.500000 91.107 -14.7073
48.200001 91.051 -15.7009
48.700001 91.010 -16.3127
49.400002 90.973 -16.9389
50.000000 90.969 -17.3630
50.799999 90.975 -17.9254
51.500000 90.962 -18.2997
52.200001 90.947 -18.4734
53.000000 90.942 -18.6569
53.799999 90.915 -19.0043
54.500000 90.858 -19.3344
55.200001 90.786 -19.6426
56.000000 90.693 -20.0327
57.000000 90.570 -20.5201
58.000000 90.474 -21.0941
59.000000 90.391 -21.8412
60.000000 90.322 -22.6084
60.799999 90.273 -23.1216
61.500000 90.269 -23.3533
62.200001 90.337 -23.7628
63.000000 90.398 -25.0393
64.000000 90.228 -26.6522
65.000000 89.969 -26.3542
66.000000 89.898 -25.3666
67.000000 89.901 -25.0554
68.000000 89.849 -25.2620
69.000000 89.726 -25.5189
70.000000 89.590 -25.6408
71.000000 89.476 -25.7877
72.000000 89.389 -26.0587
73.000000 89.317 -26.4737
74.000000 89.245 -26.8991
75.000000 89.175 -27.2386
76.199997 89.090 -27.5898
77.500000 88.969 -27.8188
78.800003 88.867 -27.8348
80.000000 88.789 -28.0975
81.199997 88.693 -28.4186
82.500000 88.582 -28.6841
83.800003 88.484 -28.7626
85.000000 88.406 -28.8698
86.199997 88.314 -28.9714
87.500000 88.210 -29.0955
88.500000 88.128 -29.2295
90.000000 88.008 -29.4650
91.199997 87.919 -29.6371
92.500000 87.834 -29.7837
93.800003 87.747 -29.8638
95.000000 87.671 -29.8534
96.199997 87.596 -29.8694
97.500000 87.505 -29.9034
98.800003 87.416 -29.9469
100.000000 87.333 -30.0047
101.500000 87.235 -30.0173
103.000000 87.146 -29.9982
104.400002 87.063 -29.9587
106.000000 86.973 -29.8997
107.500000 86.888 -29.9657
109.000000 86.783 -30.0311
110.599998 86.669 -29.9726
112.000000 86.575 -29.8320
113.800003 86.473 -29.5841
115.000000 86.412 -29.4544
117.199997 86.297 -29.2231
118.000000 86.258 -29.1379
120.599998 86.121 -29.0637
122.000000 86.021 -29.0017
124.099998 85.899 -28.7549
125.000000 85.861 -28.7173
126.500000 85.792 -28.7257
128.000000 85.707 -28.6295
131.500000 85.535 -27.7674
132.000000 85.520 -27.6630
134.000000 85.460 -27.4503
136.000000 85.405 -27.3016
138.000000 85.377 -27.0438
140.000000 85.338 -26.7696
143.000000 85.163 -26.1329
145.000000 85.037 -25.7180
147.500000 84.908 -25.4169
150.000000 84.811 -25.0447
152.500000 84.724 -24.5535
155.000000 84.630 -24.1727
157.500000 84.543 -23.8736
160.000000 84.479 -23.5326
162.500000 84.434 -23.1342
165.000000 84.349 -22.9326
167.500000 84.219 -22.5325
170.000000 84.165 -22.0301
172.500000 84.167 -21.5734
175.000000 84.153 -20.8884
177.500000 84.092 -20.2156
180.000000 83.999 -19.8787
182.500000 83.939 -19.6499
185.000000 83.922 -19.2223
187.500000 83.884 -18.5737
190.000000 83.826 -17.9940
192.500000 83.784 -17.6588
195.000000 83.761 -17.3623
197.500000 83.722 -16.9648
200.000000 83.668 -16.5296
203.000000 83.611 -16.2087
206.000000 83.563 -15.9971
209.000000 83.565 -15.8505
212.000000 83.594 -15.7111
214.000000 83.590 -15.4216
218.000000 83.530 -14.4803
220.000000 83.496 -14.0499
224.000000 83.434 -13.2622
227.000000 83.393 -12.7339
230.000000 83.376 -12.3828
233.000000 83.361 -12.1078
236.000000 83.333 -11.7191
240.000000 83.312 -11.1952
243.000000 83.291 -10.8774
247.000000 83.232 -10.2771
250.000000 83.215 -9.7913
254.000000 83.223 -9.2864
258.000000 83.212 -8.7608
262.000000 83.172 -8.2743
265.000000 83.133 -7.9210
269.000000 83.124 -7.4309
272.000000 83.140 -7.1723
276.000000 83.132 -6.7742
280.000000 83.111 -6.2620
285.000000 83.105 -5.6511
290.000000 83.100 -5.0419
295.000000 83.125 -4.6043
300.000000 83.151 -4.2247
304.000000 83.142 -3.7668
307.000000 83.131 -3.3999
311.000000 83.134 -2.9689
315.000000 83.153 -2.7142
320.000000 83.165 -2.5064
325.000000 83.154 -2.2804
330.000000 83.150 -2.1106
335.000000 83.151 -1.7990
340.000000 83.148 -1.3959
345.000000 83.152 -1.0278
350.000000 83.158 -0.7408
355.000000 83.159 -0.3458
360.000000 83.165 -0.0590
365.000000 83.144 0.1328
370.000000 83.114 0.4052
375.000000 83.096 0.7424
382.000000 83.082 1.1679
387.000000 83.070 1.4369
395.000000 83.056 1.9517
400.000000 83.053 2.3276
406.000000 83.068 2.7774
412.000000 83.086 3.1147
418.000000 83.091 3.4267
425.000000 83.090 3.6696
431.000000 83.085 4.0223
437.000000 83.074 4.4440
444.000000 83.074 4.8291
450.000000 83.072 5.0514
455.000000 83.056 5.2784
462.000000 83.043 5.7300
468.000000 83.047 6.0831
475.000000 83.049 6.3817
482.000000 83.054 6.6456
487.000000 83.051 6.8774
494.000000 83.025 7.2293
500.000000 82.999 7.5248
508.000000 82.989 7.9392
515.000000 82.995 8.3258
522.000000 83.018 8.8455
530.000000 82.985 9.6429
538.000000 82.880 10.2692
545.000000 82.798 10.3754
552.000000 82.821 10.0690
560.000000 82.921 10.1277
570.000000 82.914 11.2620
580.000000 82.831 11.9981
590.000000 82.816 12.2527
600.000000 82.853 13.0889
608.000000 82.846 13.7439
615.000000 82.858 14.0579
622.000000 82.885 14.3196
630.000000 82.889 14.6300
640.000000 82.873 15.3241
650.000000 82.846 16.0815
660.000000 82.825 16.6604
670.000000 82.797 17.2516
680.000000 82.776 17.9561
690.000000 82.778 18.6287
700.000000 82.799 19.3124
710.000000 82.830 20.0162
720.000000 82.837 20.8155
730.000000 82.841 21.6608
740.000000 82.849 22.5172
750.000000 82.852 23.3338
762.000000 82.878 24.0260
775.000000 82.930 24.8781
788.000000 82.976 25.8867
800.000000 83.016 26.7816
812.000000 83.062 27.6753
825.000000 83.117 28.6502
838.000000 83.177 29.4846
850.000000 83.285 30.2363
862.000000 83.436 31.0227
875.000000 83.578 31.7200
885.000000 83.680 32.1093
900.000000 83.822 32.4858
912.000000 83.905 32.6782
925.000000 83.974 32.8796
938.000000 84.028 33.0912
950.000000 84.062 33.2638
962.000000 84.096 33.5363
975.000000 84.148 33.9802
988.000000 84.201 34.4431
1000.000000 84.246 34.8733
1015.000000 84.303 35.3961
1030.000000 84.364 35.8784
1044.000000 84.427 36.3289
1060.000000 84.499 36.8256
1075.000000 84.578 37.2600
1090.000000 84.655 37.6993
1106.000000 84.734 38.1276
1120.000000 84.801 38.4643
1138.000000 84.883 38.8745
1150.000000 84.938 39.1378
1172.000000 85.039 39.5825
1180.000000 85.073 39.7409
1206.000000 85.180 40.2379
1220.000000 85.235 40.4875
1241.000000 85.317 40.8479
1250.000000 85.349 40.9964
1265.000000 85.397 41.2396
1280.000000 85.447 41.4963
1315.000000 85.566 42.1578
1320.000000 85.582 42.2505
1340.000000 85.644 42.6206
1360.000000 85.703 42.9861
1380.000000 85.761 43.3545
1400.000000 85.819 43.7294
1430.000000 85.908 44.3215
1450.000000 85.967 44.7288
1475.000000 86.039 45.2406
1500.000000 86.113 45.7649
1525.000000 86.192 46.2972
1550.000000 86.272 46.8406
1575.000000 86.352 47.3777
1600.000000 86.436 47.9067
1625.000000 86.523 48.4397
1650.000000 86.612 48.9706
1675.000000 86.705 49.4969
1700.000000 86.801 50.0076
1725.000000 86.900 50.5049
1750.000000 87.003 50.9903
1775.000000 87.109 51.4574
1800.000000 87.218 51.9061
1825.000000 87.331 52.3353
1850.000000 87.447 52.7411
1875.000000 87.565 53.1179
1900.000000 87.687 53.4620
1925.000000 87.812 53.7757
1950.000000 87.938 54.0568
1975.000000 88.067 54.3042
2000.000000 88.198 54.5083
2030.000000 88.358 54.6953
2060.000000 88.520 54.8248
2090.000000 88.683 54.8907
2120.000000 88.847 54.8883
2140.000000 88.956 54.8450
2180.000000 89.171 54.6512
2200.000000 89.277 54.5026
2240.000000 89.483 54.1035
2270.000000 89.631 53.7118
2300.000000 89.773 53.2468
2330.000000 89.905 52.7127
2360.000000 90.028 52.1154
2400.000000 90.174 51.2311
2430.000000 90.269 50.5152
2470.000000 90.374 49.5147
2500.000000 90.437 48.7465
2540.000000 90.500 47.7255
2580.000000 90.540 46.7318
2620.000000 90.560 45.7880
2650.000000 90.565 45.1311
2690.000000 90.560 44.3338
2720.000000 90.550 43.7952
2760.000000 90.534 43.1524
2800.000000 90.517 42.5826
2850.000000 90.497 41.9438
2900.000000 90.482 41.3570
2950.000000 90.471 40.7854
3000.000000 90.465 40.2053
3040.000000 90.460 39.7225
3070.000000 90.456 39.3463
3110.000000 90.450 38.8257
3150.000000 90.441 38.2852
3200.000000 90.424 37.5846
3250.000000 90.402 36.8607
3300.000000 90.372 36.1184
3350.000000 90.336 35.3615
3400.000000 90.296 34.5868
3450.000000 90.250 33.7853
3500.000000 90.197 32.9414
3550.000000 90.136 32.0401
3600.000000 90.061 31.0717
3650.000000 89.968 30.0317
3700.000000 89.849 28.9277
3750.000000 89.695 27.7900
3820.000000 89.407 26.2477
3870.000000 89.140 25.2996
3950.000000 88.598 24.4377
4000.000000 88.204 24.5771
4060.000000 87.716 25.6737
4120.000000 87.279 27.8396
4180.000000 86.967 30.8690
4250.000000 86.822 34.9119
4310.000000 86.886 38.2613
4370.000000 87.088 41.1340
4440.000000 87.434 43.6709
4500.000000 87.781 45.1182
4550.000000 88.083 45.8426
4620.000000 88.504 46.1974
4680.000000 88.848 45.9569
4750.000000 89.213 45.1220
4820.000000 89.525 43.7945
4870.000000 89.707 42.6216
4940.000000 89.902 40.7815
5000.000000 90.015 39.1223
5080.000000 90.099 36.9403
5150.000000 90.129 35.1207
5220.000000 90.132 33.3584
5300.000000 90.109 31.3309
5380.000000 90.046 29.2271
5450.000000 89.946 27.3391
5520.000000 89.795 25.4823
5600.000000 89.560 23.5282
5700.000000 89.184 21.5356
5800.000000 88.746 20.1949
5900.000000 88.282 19.5585
6000.000000 87.823 19.5874
6080.000000 87.476 20.0261
6150.000000 87.194 20.6646
6220.000000 86.938 21.4983
6300.000000 86.679 22.6421
6400.000000 86.410 24.2877
6500.000000 86.207 26.0814
6600.000000 86.068 27.9352
6700.000000 85.998 29.7730
6800.000000 85.997 31.5238
6900.000000 86.069 33.1111
7000.000000 86.217 34.4315
7100.000000 86.445 35.3570
7200.000000 86.747 35.7262
7300.000000 87.108 35.3847
7400.000000 87.515 34.1974
7500.000000 87.946 32.0116
7620.000000 88.449 27.8526
7750.000000 88.883 21.1966
7880.000000 89.034 12.4274
8000.000000 88.802 3.5203
8120.000000 88.226 -4.8485
8250.000000 87.325 -12.3536
8380.000000 86.284 -17.9300
8500.000000 85.310 -21.5080
8620.000000 84.393 -23.8616
8750.000000 83.507 -25.3411
8850.000000 82.916 -25.8897
9000.000000 82.189 -25.9768
9120.000000 81.747 -25.5439
9250.000000 81.417 -24.6901
9380.000000 81.247 -23.6474
9500.000000 81.220 -22.6648
9620.000000 81.310 -21.7686
9750.000000 81.526 -21.0598
9880.000000 81.837 -20.7618
10000.000000 82.181 -20.9350
10150.000000 82.653 -21.8368
10300.000000 83.129 -23.5074
10440.000000 83.546 -25.7373
10600.000000 83.955 -29.0760
10750.000000 84.229 -32.9425
10900.000000 84.348 -37.3381
11060.000000 84.263 -42.1345
11200.000000 84.013 -45.8916
11380.000000 83.528 -49.5059
11500.000000 83.173 -51.0731
11720.000000 82.611 -52.7443
11800.000000 82.459 -53.2214
12060.000000 82.130 -55.5411
12200.000000 81.993 -57.6930
12410.000000 81.716 -62.1814
12500.000000 81.546 -64.4365
12650.000000 81.185 -68.3767
12800.000000 80.746 -72.3003
13150.000000 79.712 -80.7953
13200.000000 79.595 -81.9830
13400.000000 79.279 -87.0750
13600.000000 79.270 -93.3515
13800.000000 79.596 -101.7988
14000.000000 80.177 -113.4819
14300.000000 81.014 -138.4970
14500.000000 81.096 -158.9924
14750.000000 80.403 175.9252
15000.000000 79.098 155.9556
15250.000000 77.720 141.9127
15500.000000 76.661 132.2719
15750.000000 76.123 125.1979
16000.000000 76.231 118.5450
16250.000000 76.897 109.7314
16500.000000 77.775 96.9739
16750.000000 78.570 80.0937
17000.000000 79.144 59.5695
17250.000000 79.421 35.8719
17500.000000 79.378 9.5487
17750.000000 79.083 -19.1334
18000.000000 78.645 -50.9482
18250.000000 78.060 -87.8663
18500.000000 77.089 -131.7952
18750.000000 75.369 177.0397
19000.000000 72.632 118.3758
19250.000000 68.720 44.4418
19500.000000 63.515 -65.2435
19750.000000 58.310 160.5515
