* Measurement data measured by REW V5.20.9
* Source: Headset (USB-C to 3.5mm Headphone Jack Adapter), MICROPHONE (Master Volume), L, volume: 0.800. Timing signal peak level -21.2 dBFS, measurement signal peak level -19.0 dBFS
* Format: 256k Log Swept Sine, 1 sweep at -12.0 dBFS using an acoustic timing reference
* Dated: 23/10/2022 8:52:27 PM
* REW Settings:
*  C-weighting compensation: Off
*  Target level: 75.0 dB
* Note: ; Delay -0.1366 ms (-47 mm, -1.84 in) using estimated IR delay relative to Acoustic reference on SPEAKER R with no timing offset
* Measurement: Monk Plus R
* Smoothing: 1/24 octave
* Frequency Step: 1/48 octave
* Start Frequency: 1.000 Hz
*
* Freq(Hz) SPL(dB) Phase(degrees)
1.000000 46.790 131.0036
1.015000 46.806 129.5197
1.030000 46.823 128.0303
1.044000 46.840 126.6369
1.060000 46.859 125.0431
1.075000 46.878 123.5497
1.090000 46.898 122.0594
1.106000 46.921 120.4724
1.120000 46.939 119.0703
1.138000 46.963 117.2454
1.150000 46.978 116.0156
1.172000 47.004 113.7356
1.180000 47.014 112.8988
1.206000 47.046 110.1530
1.220000 47.063 108.6591
1.241000 47.090 106.4002
1.250000 47.101 105.4261
1.265000 47.122 103.7950
1.280000 47.143 102.1556
1.315000 47.198 98.3027
1.320000 47.206 97.7497
1.340000 47.242 95.5322
1.360000 47.281 93.3081
1.380000 47.323 91.0795
1.400000 47.370 88.8486
1.430000 47.449 85.5028
1.450000 47.508 83.2758
1.475000 47.590 80.4940
1.500000 47.682 77.6675
1.525000 47.782 74.7937
1.550000 47.889 71.8834
1.575000 48.004 68.9474
1.600000 48.124 65.9962
1.625000 48.249 63.0407
1.650000 48.378 60.0915
1.675000 48.509 57.1593
1.700000 48.643 54.2548
1.725000 48.777 51.3888
1.750000 48.911 48.5719
1.775000 49.044 45.8148
1.800000 49.175 43.1283
1.825000 49.303 40.5230
1.850000 49.430 37.9942
1.875000 49.560 35.5104
1.900000 49.694 33.0698
1.925000 49.830 30.6720
1.950000 49.967 28.3168
1.975000 50.105 26.0040
2.000000 50.243 23.7332
2.030000 50.407 21.0632
2.060000 50.568 18.4529
2.090000 50.724 15.9017
2.120000 50.874 13.4090
2.140000 50.971 11.7796
2.180000 51.152 8.5975
2.200000 51.235 7.0447
2.240000 51.396 4.0188
2.270000 51.511 1.8199
2.300000 51.622 -0.3193
2.330000 51.729 -2.3993
2.360000 51.829 -4.4206
2.400000 51.955 -7.0254
2.430000 52.041 -8.9121
2.470000 52.146 -11.3395
2.500000 52.216 -13.0945
2.540000 52.297 -15.3485
2.580000 52.363 -17.5079
2.620000 52.414 -19.5936
2.650000 52.443 -21.1061
2.690000 52.470 -23.0436
2.720000 52.482 -24.4306
2.760000 52.488 -26.1814
2.800000 52.483 -27.8084
2.850000 52.465 -29.6486
2.900000 52.435 -31.2511
2.950000 52.392 -32.5972
3.000000 52.320 -33.7241
3.040000 52.245 -34.4731
3.070000 52.181 -34.9444
3.110000 52.091 -35.4500
3.150000 51.999 -35.8131
3.200000 51.890 -36.0631
3.250000 51.797 -36.0819
3.300000 51.729 -35.8643
3.350000 51.670 -35.3252
3.400000 51.607 -34.4572
3.450000 51.552 -33.3342
3.500000 51.513 -32.0297
3.550000 51.501 -30.6175
3.600000 51.525 -29.1712
3.650000 51.596 -27.7646
3.700000 51.721 -26.3676
3.750000 51.895 -24.8075
3.820000 52.204 -22.4728
3.870000 52.461 -20.7987
3.950000 52.909 -18.3147
4.000000 53.199 -16.9997
4.060000 53.551 -15.7533
4.120000 53.936 -14.7527
4.180000 54.348 -13.9542
4.250000 54.843 -13.2485
4.310000 55.265 -12.8118
4.370000 55.671 -12.5066
4.440000 56.114 -12.3268
4.500000 56.484 -12.3901
4.550000 56.786 -12.5664
4.620000 57.200 -12.9451
4.680000 57.545 -13.3395
4.750000 57.935 -13.8127
4.820000 58.311 -14.2880
4.870000 58.570 -14.6715
4.940000 58.922 -15.2634
5.000000 59.216 -15.8147
5.080000 59.602 -16.6007
5.150000 59.937 -17.3246
5.220000 60.268 -18.0749
5.300000 60.639 -18.9805
5.380000 61.002 -19.9590
5.450000 61.314 -20.8927
5.520000 61.621 -21.9116
5.600000 61.969 -23.1581
5.700000 62.395 -24.8451
5.800000 62.802 -26.6984
5.900000 63.180 -28.7436
6.000000 63.539 -30.9900
6.080000 63.808 -32.9105
6.150000 64.025 -34.6645
6.220000 64.220 -36.4738
6.300000 64.419 -38.6334
6.400000 64.636 -41.4844
6.500000 64.810 -44.4164
6.600000 64.931 -47.3365
6.700000 65.001 -50.3076
6.800000 65.021 -53.3143
6.900000 64.988 -56.2118
7.000000 64.894 -58.9009
7.100000 64.738 -61.5692
7.200000 64.529 -64.0179
7.300000 64.274 -65.9532
7.400000 63.962 -67.2564
7.500000 63.579 -68.1079
7.620000 63.111 -68.2974
7.750000 62.680 -67.0938
7.880000 62.252 -64.2718
8.000000 61.999 -60.9894
8.120000 62.038 -57.6029
8.250000 62.378 -53.2850
8.380000 62.907 -49.4318
8.500000 63.509 -47.2210
8.620000 64.274 -45.9191
8.750000 65.123 -45.5551
8.850000 65.697 -46.1289
9.000000 66.512 -48.4578
9.120000 67.090 -50.9980
9.250000 67.606 -54.0545
9.380000 68.026 -57.6501
9.500000 68.332 -61.0633
9.620000 68.558 -64.4048
9.750000 68.712 -68.0825
9.880000 68.790 -71.5158
10.000000 68.793 -74.3992
10.150000 68.710 -77.6620
10.300000 68.577 -80.1907
10.440000 68.391 -81.8691
10.600000 68.173 -83.0258
10.750000 68.007 -83.2599
10.900000 67.874 -82.8026
11.060000 67.845 -82.0070
11.200000 67.916 -80.9436
11.380000 68.098 -79.7148
11.500000 68.285 -79.1124
11.720000 68.685 -78.4193
11.800000 68.824 -78.3807
12.060000 69.263 -78.7964
12.200000 69.449 -79.1184
12.410000 69.676 -79.6582
12.500000 69.763 -79.7463
12.650000 69.882 -79.7392
12.800000 70.007 -79.5425
13.150000 70.396 -78.2629
13.200000 70.468 -78.0797
13.400000 70.806 -77.3043
13.600000 71.181 -76.8724
13.800000 71.588 -76.9496
14.000000 71.958 -77.5483
14.300000 72.407 -79.3273
14.500000 72.592 -80.8259
14.750000 72.698 -82.5511
15.000000 72.675 -83.8478
15.250000 72.574 -84.2806
15.500000 72.471 -83.8748
15.750000 72.413 -82.7401
16.000000 72.462 -81.2551
16.250000 72.602 -79.9160
16.500000 72.805 -78.9287
16.750000 73.018 -78.5026
17.000000 73.196 -78.4668
17.250000 73.328 -78.6734
17.500000 73.408 -78.9119
17.750000 73.460 -79.0291
18.000000 73.498 -79.0331
18.250000 73.540 -78.9422
18.500000 73.587 -78.8779
18.750000 73.633 -78.8609
19.000000 73.668 -78.9074
19.250000 73.682 -78.9090
19.500000 73.686 -78.7570
19.750000 73.692 -78.3768
20.000000 73.734 -77.7360
20.299999 73.864 -76.8473
20.600000 74.092 -76.1377
20.900000 74.396 -75.9732
21.200001 74.715 -76.6102
21.400000 74.896 -77.4518
21.799999 75.133 -79.7579
22.000000 75.175 -80.9548
22.400000 75.121 -82.7898
22.700001 75.017 -83.2913
23.000000 74.947 -82.9487
23.299999 74.978 -82.0954
23.600000 75.127 -81.2012
24.000000 75.454 -80.6368
24.299999 75.710 -80.9135
24.700001 75.967 -81.9445
25.000000 76.078 -82.7696
25.400000 76.156 -83.4183
25.799999 76.245 -83.4306
26.200001 76.412 -83.2278
26.500000 76.576 -83.2793
26.900000 76.790 -83.8050
27.200001 76.908 -84.4169
27.600000 76.997 -85.1610
28.000000 77.054 -85.5017
28.500000 77.170 -85.4918
29.000000 77.345 -85.6851
29.500000 77.478 -86.3000
30.000000 77.516 -86.6253
30.400000 77.546 -86.2049
30.700001 77.625 -85.5650
31.100000 77.836 -84.7889
31.500000 78.113 -84.6071
32.000000 78.408 -85.3405
32.500000 78.556 -86.2817
33.000000 78.639 -86.4716
33.500000 78.799 -86.0544
34.000000 79.048 -85.9547
34.500000 79.250 -86.5167
35.000000 79.326 -87.0192
35.500000 79.358 -86.5964
36.000000 79.507 -85.4479
36.500000 79.806 -84.6322
37.000000 80.115 -84.8899
37.500000 80.297 -85.8800
38.200001 80.325 -86.8107
38.700001 80.309 -86.5752
39.500000 80.434 -85.6510
40.000000 80.579 -85.4694
40.599998 80.736 -85.7774
41.200001 80.850 -86.3446
41.799999 80.942 -87.0093
42.500000 81.026 -87.8953
43.099998 81.072 -88.5510
43.700001 81.133 -88.9330
44.400002 81.252 -89.2284
45.000000 81.363 -89.3932
45.500000 81.468 -89.2294
46.200001 81.707 -88.6632
46.799999 81.966 -88.4848
47.500000 82.193 -88.3788
48.200001 82.464 -87.3267
48.700001 82.819 -86.6348
49.400002 83.359 -87.7890
50.000000 83.526 -90.4579
50.799999 83.270 -92.5014
51.500000 83.079 -91.5167
52.200001 83.192 -90.4069
53.000000 83.385 -90.6486
53.799999 83.485 -91.1406
54.500000 83.592 -91.3007
55.200001 83.734 -91.4662
56.000000 83.920 -91.6569
57.000000 84.165 -92.0143
58.000000 84.344 -92.3113
59.000000 84.507 -92.0664
60.000000 84.726 -91.8926
60.799999 84.878 -92.2743
61.500000 84.948 -92.7517
62.200001 84.989 -93.0578
63.000000 85.054 -93.2319
64.000000 85.184 -93.4593
65.000000 85.360 -93.8414
66.000000 85.536 -94.3890
67.000000 85.699 -94.6905
68.000000 85.896 -94.7321
69.000000 86.118 -94.8325
70.000000 86.332 -95.1363
71.000000 86.509 -95.5645
72.000000 86.665 -95.9602
73.000000 86.813 -96.3769
74.000000 86.956 -96.7775
75.000000 87.106 -97.1354
76.199997 87.299 -97.5592
77.500000 87.508 -98.0629
78.800003 87.705 -98.4723
80.000000 87.895 -98.8539
81.199997 88.069 -99.3046
82.500000 88.253 -99.8375
83.800003 88.409 -100.4325
85.000000 88.551 -100.8351
86.199997 88.710 -101.2019
87.500000 88.901 -101.5862
88.500000 89.057 -101.9385
90.000000 89.285 -102.5169
91.199997 89.462 -103.0057
92.500000 89.644 -103.5914
93.800003 89.816 -104.2191
95.000000 89.972 -104.8462
96.199997 90.126 -105.5122
97.500000 90.294 -106.2492
98.800003 90.458 -106.9798
100.000000 90.607 -107.5993
101.500000 90.793 -108.3433
103.000000 90.976 -109.1245
104.400002 91.142 -109.9044
106.000000 91.328 -110.8381
107.500000 91.498 -111.6918
109.000000 91.669 -112.4881
110.599998 91.852 -113.3737
112.000000 91.995 -114.2283
113.800003 92.161 -115.3309
115.000000 92.274 -116.0757
117.199997 92.490 -117.5245
118.000000 92.568 -118.0691
120.599998 92.799 -119.7792
122.000000 92.919 -120.6759
124.099998 93.089 -122.1361
125.000000 93.158 -122.7941
126.500000 93.271 -123.8974
128.000000 93.388 -125.0075
131.500000 93.632 -127.6386
132.000000 93.663 -127.9986
134.000000 93.781 -129.4443
136.000000 93.887 -130.9419
138.000000 93.982 -132.4511
140.000000 94.075 -133.9360
143.000000 94.201 -136.1339
145.000000 94.264 -137.6199
147.500000 94.312 -139.5484
150.000000 94.350 -141.3917
152.500000 94.419 -143.2071
155.000000 94.471 -145.0243
157.500000 94.494 -146.7667
160.000000 94.499 -148.5158
162.500000 94.496 -150.2526
165.000000 94.486 -151.9077
167.500000 94.466 -153.4888
170.000000 94.432 -155.0142
172.500000 94.389 -156.4884
175.000000 94.339 -157.9368
177.500000 94.280 -159.3401
180.000000 94.216 -160.6790
182.500000 94.146 -161.9575
185.000000 94.072 -163.1771
187.500000 93.994 -164.3518
190.000000 93.913 -165.4785
192.500000 93.827 -166.5632
195.000000 93.734 -167.6011
197.500000 93.636 -168.5657
200.000000 93.539 -169.4315
203.000000 93.431 -170.3975
206.000000 93.314 -171.3376
209.000000 93.189 -172.2531
212.000000 93.060 -173.0909
214.000000 92.979 -173.6075
218.000000 92.830 -174.6883
220.000000 92.758 -175.2314
224.000000 92.612 -176.1216
227.000000 92.499 -176.6751
230.000000 92.386 -177.2363
233.000000 92.275 -177.7631
236.000000 92.162 -178.2396
240.000000 92.008 -178.8368
243.000000 91.895 -179.2241
247.000000 91.738 -179.6822
250.000000 91.617 -179.9893
254.000000 91.479 179.6354
258.000000 91.343 179.3187
262.000000 91.199 179.0423
265.000000 91.092 178.8710
269.000000 90.954 178.7027
272.000000 90.852 178.6052
276.000000 90.722 178.5088
280.000000 90.596 178.4473
285.000000 90.439 178.3804
290.000000 90.293 178.3646
295.000000 90.159 178.4168
300.000000 90.025 178.4543
304.000000 89.917 178.5408
307.000000 89.837 178.6219
311.000000 89.735 178.7487
315.000000 89.638 178.9153
320.000000 89.519 179.1392
325.000000 89.408 179.3831
330.000000 89.299 179.6907
335.000000 89.193 -179.9299
340.000000 89.098 -179.5281
345.000000 89.027 -179.0563
350.000000 88.979 -178.5240
355.000000 88.968 -178.0934
360.000000 88.992 -177.9791
365.000000 88.998 -178.3307
370.000000 88.928 -178.9425
375.000000 88.779 -179.3796
382.000000 88.534 -179.2694
387.000000 88.388 -178.8160
395.000000 88.206 -177.9415
400.000000 88.115 -177.4260
406.000000 88.021 -176.8647
412.000000 87.931 -176.3225
418.000000 87.846 -175.7726
425.000000 87.754 -175.1489
431.000000 87.677 -174.6342
437.000000 87.599 -174.0902
444.000000 87.519 -173.4206
450.000000 87.457 -172.8718
455.000000 87.399 -172.4360
462.000000 87.317 -171.8223
468.000000 87.255 -171.3015
475.000000 87.189 -170.7035
482.000000 87.130 -170.1199
487.000000 87.090 -169.7056
494.000000 87.035 -169.1176
500.000000 86.990 -168.6108
508.000000 86.931 -167.8950
515.000000 86.880 -167.2478
522.000000 86.830 -166.6126
530.000000 86.776 -165.8880
538.000000 86.725 -165.1625
545.000000 86.685 -164.5240
552.000000 86.644 -163.8970
560.000000 86.591 -163.1875
570.000000 86.532 -162.2887
580.000000 86.478 -161.4041
590.000000 86.426 -160.5122
600.000000 86.380 -159.6246
608.000000 86.345 -158.9189
615.000000 86.314 -158.2997
622.000000 86.284 -157.6892
630.000000 86.252 -156.9865
640.000000 86.207 -156.1154
650.000000 86.165 -155.2440
660.000000 86.136 -154.3511
670.000000 86.104 -153.4579
680.000000 86.070 -152.5943
690.000000 86.033 -151.7507
700.000000 85.998 -150.8735
710.000000 85.970 -149.9820
720.000000 85.950 -149.1032
730.000000 85.928 -148.2256
740.000000 85.904 -147.3738
750.000000 85.880 -146.5493
762.000000 85.863 -145.5466
775.000000 85.844 -144.3995
788.000000 85.811 -143.2735
800.000000 85.779 -142.2549
812.000000 85.750 -141.1929
825.000000 85.721 -140.0239
838.000000 85.699 -138.8990
850.000000 85.680 -137.8652
862.000000 85.656 -136.8024
875.000000 85.631 -135.6382
885.000000 85.614 -134.7643
900.000000 85.585 -133.4311
912.000000 85.566 -132.3238
925.000000 85.552 -131.1129
938.000000 85.537 -129.9223
950.000000 85.524 -128.8121
962.000000 85.520 -127.6817
975.000000 85.518 -126.4765
988.000000 85.512 -125.2743
1000.000000 85.508 -124.1443
1015.000000 85.505 -122.7128
1030.000000 85.504 -121.2692
1044.000000 85.506 -119.8936
1060.000000 85.509 -118.3615
1075.000000 85.511 -116.9149
1090.000000 85.518 -115.3833
1106.000000 85.539 -113.7403
1120.000000 85.564 -112.3439
1138.000000 85.598 -110.5497
1150.000000 85.624 -109.3381
1172.000000 85.677 -107.1237
1180.000000 85.700 -106.3275
1206.000000 85.779 -103.8005
1220.000000 85.824 -102.4459
1241.000000 85.898 -100.4025
1250.000000 85.930 -99.5199
1265.000000 85.985 -98.0273
1280.000000 86.044 -96.5489
1315.000000 86.198 -93.1921
1320.000000 86.221 -92.7242
1340.000000 86.309 -90.8528
1360.000000 86.396 -88.9458
1380.000000 86.491 -86.9755
1400.000000 86.605 -84.9793
1430.000000 86.788 -82.0412
1450.000000 86.916 -80.0976
1475.000000 87.091 -77.6340
1500.000000 87.290 -75.1591
1525.000000 87.503 -72.8724
1550.000000 87.713 -70.6518
1575.000000 87.940 -68.4624
1600.000000 88.170 -66.4010
1625.000000 88.389 -64.3280
1650.000000 88.631 -62.1265
1675.000000 88.901 -60.0301
1700.000000 89.170 -58.0563
1725.000000 89.449 -56.0217
1750.000000 89.759 -54.0731
1775.000000 90.078 -52.3249
1800.000000 90.409 -50.6493
1825.000000 90.761 -49.1036
1850.000000 91.122 -47.7502
1875.000000 91.483 -46.5568
1900.000000 91.845 -45.4717
1925.000000 92.217 -44.5193
1950.000000 92.592 -43.7828
1975.000000 92.958 -43.2419
2000.000000 93.311 -42.8404
2030.000000 93.732 -42.5099
2060.000000 94.138 -42.4175
2090.000000 94.529 -42.4667
2120.000000 94.902 -42.7493
2140.000000 95.130 -43.0471
2180.000000 95.571 -43.7664
2200.000000 95.777 -44.2315
2240.000000 96.152 -45.3344
2270.000000 96.407 -46.2675
2300.000000 96.636 -47.3075
2330.000000 96.834 -48.4841
2360.000000 96.997 -49.7723
2400.000000 97.152 -51.5472
2430.000000 97.224 -52.8462
2470.000000 97.277 -54.4277
2500.000000 97.296 -55.5522
2540.000000 97.285 -57.0226
2580.000000 97.218 -58.4312
2620.000000 97.100 -59.5827
2650.000000 96.994 -60.2783
2690.000000 96.832 -61.0094
2720.000000 96.700 -61.4184
2760.000000 96.514 -61.8212
2800.000000 96.315 -62.0409
2850.000000 96.055 -62.1342
2900.000000 95.767 -61.9801
2950.000000 95.469 -61.4872
3000.000000 95.174 -60.7897
3040.000000 94.933 -60.1015
3070.000000 94.751 -59.4979
3110.000000 94.510 -58.6191
3150.000000 94.257 -57.6395
3200.000000 93.929 -56.1134
3250.000000 93.622 -54.3230
3300.000000 93.337 -52.4258
3350.000000 93.055 -50.3765
3400.000000 92.786 -48.1574
3450.000000 92.529 -45.8595
3500.000000 92.276 -43.4569
3550.000000 92.035 -40.8983
3600.000000 91.812 -38.2596
3650.000000 91.589 -35.6068
3700.000000 91.341 -32.8423
3750.000000 91.072 -29.6094
3820.000000 90.824 -23.7006
3870.000000 90.926 -19.3977
3950.000000 91.209 -16.0523
4000.000000 91.154 -14.8815
4060.000000 90.951 -12.8023
4120.000000 90.716 -9.9550
4180.000000 90.512 -6.6100
4250.000000 90.330 -2.5598
4310.000000 90.198 0.9188
4370.000000 90.075 4.4614
4440.000000 89.951 8.7480
4500.000000 89.881 12.4648
4550.000000 89.841 15.4738
4620.000000 89.783 19.5618
4680.000000 89.732 23.0855
4750.000000 89.681 27.2336
4820.000000 89.636 31.4131
4870.000000 89.610 34.4629
4940.000000 89.598 38.8449
5000.000000 89.622 42.6333
5080.000000 89.699 47.5077
5150.000000 89.786 51.5759
5220.000000 89.891 55.5307
5300.000000 90.037 59.7481
5380.000000 90.183 63.5858
5450.000000 90.290 66.6456
5520.000000 90.349 69.5423
5600.000000 90.368 73.0556
5700.000000 90.426 77.7334
5800.000000 90.527 81.8573
5900.000000 90.508 85.3678
6000.000000 90.353 89.1093
6080.000000 90.139 92.4162
6150.000000 89.880 95.8587
6220.000000 89.579 100.0984
6300.000000 89.246 106.2268
6400.000000 89.031 115.8993
6500.000000 89.291 126.7807
6600.000000 90.104 136.9172
6700.000000 91.291 144.4483
6800.000000 92.519 148.4577
6900.000000 93.558 149.5759
7000.000000 94.327 148.8466
7100.000000 94.814 147.2363
7200.000000 95.060 145.4227
7300.000000 95.103 143.6436
7400.000000 94.947 142.1103
7500.000000 94.604 141.2097
7620.000000 94.018 141.3670
7750.000000 93.261 143.1542
7880.000000 92.487 146.5848
8000.000000 91.835 150.6908
8120.000000 91.253 155.2829
8250.000000 90.680 160.4702
8380.000000 90.139 165.7369
8500.000000 89.657 170.5340
8620.000000 89.164 174.9364
8750.000000 88.501 178.9896
8850.000000 87.748 -177.9298
9000.000000 85.975 -168.6426
9120.000000 84.594 -153.0153
9250.000000 84.571 -134.1569
9380.000000 85.391 -121.3421
9500.000000 85.995 -113.5436
9620.000000 86.394 -106.8923
9750.000000 86.720 -99.9201
9880.000000 87.005 -93.1394
10000.000000 87.232 -87.0854
10150.000000 87.456 -79.4850
10300.000000 87.696 -71.4232
10440.000000 88.022 -63.7538
10600.000000 88.509 -55.5220
10750.000000 89.007 -48.5436
10900.000000 89.514 -42.0410
11060.000000 90.101 -35.5122
11200.000000 90.670 -30.3019
11380.000000 91.476 -24.6294
11500.000000 92.036 -21.7584
11720.000000 92.979 -18.9090
11800.000000 93.238 -18.7068
12060.000000 93.490 -19.1234
12200.000000 93.360 -18.1449
12410.000000 93.221 -15.5660
12500.000000 93.153 -14.6113
12650.000000 92.944 -12.8701
12800.000000 92.660 -10.3165
13150.000000 92.274 -1.4316
13200.000000 92.288 -0.0704
13400.000000 92.539 4.7638
13600.000000 93.034 7.6357
13800.000000 93.598 7.4066
14000.000000 93.966 3.4990
14300.000000 93.559 -7.3200
14500.000000 92.467 -14.3470
14750.000000 90.360 -18.8972
15000.000000 87.910 -17.9373
15250.000000 85.561 -13.1304
15500.000000 83.486 -6.3395
15750.000000 81.673 1.3068
16000.000000 80.046 9.4005
16250.000000 78.588 17.8286
16500.000000 77.304 26.2672
16750.000000 76.173 34.3817
17000.000000 75.152 42.0975
17250.000000 74.188 49.6735
17500.000000 73.330 57.3953
17750.000000 72.743 65.0616
18000.000000 72.512 71.6909
18250.000000 72.610 76.2826
18500.000000 72.986 78.0933
18750.000000 73.592 76.2811
19000.000000 74.338 69.4909
19250.000000 74.988 55.9982
19500.000000 75.137 35.1384
19750.000000 74.507 11.0840
