* Measurement data measured by REW V5.20.9
* Source: Headset (USB-C to 3.5mm Headphone Jack Adapter), MICROPHONE (Master Volume), L, volume: 0.800. Timing signal peak level -24.6 dBFS, measurement signal peak level -24.6 dBFS
* Format: 256k Log Swept Sine, 1 sweep at -12.0 dBFS using an acoustic timing reference
* Dated: 26/10/2023 9:12:43 PM
* REW Settings:
*  C-weighting compensation: Off
*  Target level: 75.0 dB
* Note: ; Delay -0.0294 ms (-10 mm, -0.4 in) using estimated IR delay relative to Acoustic reference on SPEAKER L with no timing offset
* Measurement: MP145 Balanced L
* Smoothing: 1/24 octave
* Frequency Step: 1/48 octave
* Start Frequency: 1.000 Hz
*
* Freq(Hz) SPL(dB) Phase(degrees)
1.000000 66.330 -44.3835
1.015000 66.160 -44.5316
1.030000 65.993 -44.6046
1.044000 65.843 -44.5997
1.060000 65.676 -44.5013
1.075000 65.527 -44.3131
1.090000 65.386 -44.0258
1.106000 65.242 -43.6021
1.120000 65.113 -43.1222
1.138000 64.941 -42.3628
1.150000 64.824 -41.7736
1.172000 64.605 -40.5361
1.180000 64.524 -40.0395
1.206000 64.262 -38.2726
1.220000 64.123 -37.2348
1.241000 63.917 -35.5817
1.250000 63.831 -34.8424
1.265000 63.691 -33.5753
1.280000 63.556 -32.2713
1.315000 63.269 -29.1288
1.320000 63.231 -28.6727
1.340000 63.092 -26.8417
1.360000 62.971 -25.0142
1.380000 62.871 -23.2084
1.400000 62.795 -21.4429
1.430000 62.731 -18.9102
1.450000 62.725 -17.3257
1.475000 62.763 -15.4700
1.500000 62.854 -13.5663
1.525000 62.994 -11.5875
1.550000 63.178 -9.5579
1.575000 63.400 -7.5018
1.600000 63.653 -5.4434
1.625000 63.934 -3.4071
1.650000 64.236 -1.4171
1.675000 64.554 0.5024
1.700000 64.882 2.3270
1.725000 65.215 4.0325
1.750000 65.548 5.5945
1.775000 65.874 6.9889
1.800000 66.188 8.1913
1.825000 66.485 9.1775
1.850000 66.770 9.9383
1.875000 67.065 10.5059
1.900000 67.370 10.8970
1.925000 67.682 11.1273
1.950000 67.999 11.2122
1.975000 68.319 11.1673
2.000000 68.641 11.0082
2.030000 69.024 10.6883
2.060000 69.403 10.2532
2.090000 69.772 9.7297
2.120000 70.130 9.1447
2.140000 70.359 8.7338
2.180000 70.792 7.8977
2.200000 70.994 7.4876
2.240000 71.375 6.5336
2.270000 71.646 5.6696
2.300000 71.904 4.6994
2.330000 72.151 3.6422
2.360000 72.388 2.5170
2.400000 72.689 0.9439
2.430000 72.906 -0.2658
2.470000 73.183 -1.8822
2.500000 73.383 -3.0724
2.540000 73.643 -4.5937
2.580000 73.895 -6.0111
2.620000 74.133 -7.4048
2.650000 74.301 -8.4488
2.690000 74.515 -9.8375
2.720000 74.666 -10.8756
2.760000 74.859 -12.2539
2.800000 75.042 -13.6239
2.850000 75.259 -15.3220
2.900000 75.466 -17.0010
2.950000 75.665 -18.6609
3.000000 75.848 -20.3257
3.040000 75.985 -21.6572
3.070000 76.081 -22.6508
3.110000 76.204 -23.9630
3.150000 76.319 -25.2542
3.200000 76.457 -26.8275
3.250000 76.587 -28.3420
3.300000 76.713 -29.7838
3.350000 76.831 -31.1630
3.400000 76.938 -32.4927
3.450000 77.037 -33.7717
3.500000 77.129 -34.9987
3.550000 77.218 -36.1725
3.600000 77.304 -37.2920
3.650000 77.390 -38.3557
3.700000 77.475 -39.3600
3.750000 77.555 -40.3009
3.820000 77.661 -41.5220
3.870000 77.735 -42.3331
3.950000 77.855 -43.5407
4.000000 77.933 -44.2478
4.060000 78.032 -45.0505
4.120000 78.133 -45.7780
4.180000 78.235 -46.4397
4.250000 78.358 -47.1486
4.310000 78.468 -47.7192
4.370000 78.584 -48.2715
4.440000 78.729 -48.8937
4.500000 78.860 -49.3756
4.550000 78.973 -49.7514
4.620000 79.137 -50.2596
4.680000 79.282 -50.6980
4.750000 79.455 -51.2386
4.820000 79.634 -51.8123
4.870000 79.767 -52.2250
4.940000 79.957 -52.8132
5.000000 80.122 -53.3329
5.080000 80.343 -54.0587
5.150000 80.534 -54.7330
5.220000 80.727 -55.4390
5.300000 80.950 -56.2806
5.380000 81.171 -57.1592
5.450000 81.360 -57.9581
5.520000 81.544 -58.7861
5.600000 81.751 -59.7763
5.700000 82.003 -61.0677
5.800000 82.245 -62.3969
5.900000 82.474 -63.7452
6.000000 82.691 -65.1327
6.080000 82.857 -66.2614
6.150000 82.994 -67.2516
6.220000 83.126 -68.2350
6.300000 83.267 -69.3569
6.400000 83.431 -70.7671
6.500000 83.582 -72.1615
6.600000 83.722 -73.5139
6.700000 83.847 -74.8336
6.800000 83.959 -76.1225
6.900000 84.062 -77.3567
7.000000 84.156 -78.5164
7.100000 84.238 -79.6155
7.200000 84.312 -80.6491
7.300000 84.382 -81.6057
7.400000 84.450 -82.4760
7.500000 84.513 -83.2645
7.620000 84.587 -84.1163
7.750000 84.676 -84.9326
7.880000 84.769 -85.6172
8.000000 84.863 -86.1826
8.120000 84.971 -86.7255
8.250000 85.101 -87.2530
8.380000 85.242 -87.7856
8.500000 85.382 -88.3329
8.620000 85.534 -88.9055
8.750000 85.703 -89.5923
8.850000 85.832 -90.1934
9.000000 86.029 -91.1966
9.120000 86.181 -92.0757
9.250000 86.334 -93.1081
9.380000 86.477 -94.2263
9.500000 86.596 -95.2879
9.620000 86.700 -96.3652
9.750000 86.796 -97.5634
9.880000 86.876 -98.7271
10.000000 86.936 -99.7546
10.150000 86.991 -100.9871
10.300000 87.035 -102.0912
10.440000 87.063 -103.0037
10.600000 87.090 -103.9096
10.750000 87.120 -104.6061
10.900000 87.152 -105.1739
11.060000 87.203 -105.6945
11.200000 87.260 -106.0609
11.380000 87.353 -106.5212
11.500000 87.428 -106.8322
11.720000 87.586 -107.4643
11.800000 87.648 -107.7410
12.060000 87.860 -108.7846
12.200000 87.970 -109.4621
12.410000 88.126 -110.6090
12.500000 88.185 -111.1279
12.650000 88.275 -112.0465
12.800000 88.351 -112.9786
13.150000 88.473 -115.0902
13.200000 88.486 -115.3686
13.400000 88.522 -116.4220
13.600000 88.550 -117.3452
13.800000 88.571 -118.1180
14.000000 88.598 -118.7731
14.300000 88.655 -119.5695
14.500000 88.711 -120.0438
14.750000 88.796 -120.6547
15.000000 88.895 -121.3255
15.250000 88.997 -122.1008
15.500000 89.092 -122.9568
15.750000 89.177 -123.8714
16.000000 89.247 -124.7936
16.250000 89.306 -125.6789
16.500000 89.357 -126.5110
16.750000 89.407 -127.2762
17.000000 89.460 -127.9992
17.250000 89.516 -128.6994
17.500000 89.578 -129.4041
17.750000 89.639 -130.1335
18.000000 89.699 -130.8843
18.250000 89.754 -131.6521
18.500000 89.803 -132.4087
18.750000 89.846 -133.1374
19.000000 89.885 -133.8227
19.250000 89.924 -134.4576
19.500000 89.966 -135.0551
19.750000 90.012 -135.6264
20.000000 90.063 -136.1987
20.299999 90.126 -136.9071
20.600000 90.187 -137.6477
20.900000 90.241 -138.4111
21.200001 90.284 -139.1670
21.400000 90.308 -139.6453
21.799999 90.348 -140.5210
22.000000 90.367 -140.9181
22.400000 90.411 -141.6598
22.700001 90.447 -142.2125
23.000000 90.484 -142.7939
23.299999 90.515 -143.3976
23.600000 90.537 -143.9940
24.000000 90.558 -144.7238
24.299999 90.576 -145.2065
24.700001 90.612 -145.8147
25.000000 90.650 -146.3184
25.400000 90.702 -147.1298
25.799999 90.734 -148.0696
26.200001 90.735 -148.9726
26.500000 90.725 -149.5190
26.900000 90.720 -150.0399
27.200001 90.737 -150.3468
27.600000 90.790 -150.8026
28.000000 90.853 -151.4254
28.500000 90.905 -152.3113
29.000000 90.934 -152.9628
29.500000 90.999 -153.3267
30.000000 91.123 -153.8324
30.400000 91.224 -154.5967
30.700001 91.271 -155.3458
31.100000 91.278 -156.3291
31.500000 91.237 -157.0326
32.000000 91.186 -157.3981
32.500000 91.191 -157.5433
33.000000 91.230 -157.9390
33.500000 91.242 -158.6218
34.000000 91.208 -159.2825
34.500000 91.162 -159.7336
35.000000 91.135 -160.0948
35.500000 91.123 -160.5525
36.000000 91.108 -161.1061
36.500000 91.089 -161.6478
37.000000 91.080 -162.1533
37.500000 91.087 -162.6964
38.200001 91.105 -163.5737
38.700001 91.116 -164.2180
39.500000 91.134 -165.2006
40.000000 91.141 -165.7744
40.599998 91.143 -166.3493
41.200001 91.152 -166.7753
41.799999 91.177 -167.1847
42.500000 91.200 -167.7887
43.099998 91.190 -168.3236
43.700001 91.162 -168.7342
44.400002 91.131 -169.0554
45.000000 91.123 -169.2972
45.500000 91.132 -169.5689
46.200001 91.157 -170.2083
46.799999 91.157 -171.0263
47.500000 91.098 -171.9686
48.200001 91.018 -172.4633
48.700001 90.998 -172.5760
49.400002 91.044 -172.8591
50.000000 91.099 -173.4971
50.799999 91.103 -174.6052
51.500000 91.051 -175.2704
52.200001 91.010 -175.5759
53.000000 90.997 -175.8382
53.799999 90.985 -176.1301
54.500000 90.974 -176.2941
55.200001 90.981 -176.4114
56.000000 91.011 -176.6584
57.000000 91.054 -177.2573
58.000000 91.063 -178.1912
59.000000 91.001 -179.1053
60.000000 90.925 -179.6446
60.799999 90.888 179.9545
61.500000 90.854 179.5237
62.200001 90.811 179.1332
63.000000 90.771 178.8018
64.000000 90.755 178.3102
65.000000 90.716 177.6656
66.000000 90.643 177.4367
67.000000 90.638 177.6523
68.000000 90.706 177.5533
69.000000 90.747 176.9882
70.000000 90.736 176.3378
71.000000 90.703 175.7790
72.000000 90.673 175.2762
73.000000 90.641 174.8430
74.000000 90.603 174.6136
75.000000 90.559 174.6624
76.199997 90.496 175.0178
77.500000 90.385 175.4614
78.800003 90.229 175.6828
80.000000 90.096 175.0892
81.199997 89.969 173.2823
82.500000 89.827 170.9281
83.800003 89.854 169.4139
85.000000 90.072 169.0989
86.199997 90.436 169.6730
87.500000 90.773 170.4940
88.500000 90.877 171.2474
90.000000 90.726 172.5694
91.199997 90.441 173.6693
92.500000 90.146 173.9781
93.800003 89.931 172.6753
95.000000 89.796 170.6017
96.199997 89.758 168.6982
97.500000 89.842 167.2113
98.800003 89.942 166.1812
100.000000 89.941 165.7841
101.500000 89.883 166.1440
103.000000 89.845 166.2853
104.400002 89.794 166.0770
106.000000 89.762 165.8325
107.500000 89.753 165.6994
109.000000 89.729 165.6007
110.599998 89.659 165.3529
112.000000 89.574 164.9833
113.800003 89.488 164.3432
115.000000 89.458 163.9027
117.199997 89.413 163.4131
118.000000 89.390 163.3725
120.599998 89.284 163.3181
122.000000 89.219 163.1625
124.099998 89.160 162.8966
125.000000 89.147 162.8188
126.500000 89.125 162.8040
128.000000 89.095 162.7708
131.500000 88.945 160.9276
132.000000 88.909 160.4450
134.000000 88.721 159.2343
136.000000 88.736 159.8255
138.000000 88.889 160.1921
140.000000 88.915 160.2282
143.000000 88.792 159.8963
145.000000 88.710 159.4762
147.500000 88.628 159.0506
150.000000 88.542 158.8308
152.500000 88.463 158.5049
155.000000 88.384 158.1458
157.500000 88.304 157.9468
160.000000 88.219 157.8024
162.500000 88.127 157.6985
165.000000 88.023 157.7385
167.500000 87.933 157.8234
170.000000 87.871 157.5564
172.500000 87.805 157.2363
175.000000 87.745 157.1658
177.500000 87.687 157.1707
180.000000 87.627 157.1169
182.500000 87.572 157.0613
185.000000 87.523 157.0027
187.500000 87.476 156.9115
190.000000 87.430 156.7764
192.500000 87.381 156.6190
195.000000 87.328 156.4582
197.500000 87.275 156.2853
200.000000 87.220 156.1068
203.000000 87.143 155.9507
206.000000 87.061 155.8521
209.000000 86.980 155.7430
212.000000 86.901 155.6645
214.000000 86.850 155.6410
218.000000 86.744 155.6257
220.000000 86.692 155.6268
224.000000 86.588 155.6490
227.000000 86.510 155.6681
230.000000 86.435 155.6855
233.000000 86.366 155.7326
236.000000 86.303 155.8111
240.000000 86.226 155.9268
243.000000 86.170 155.9984
247.000000 86.095 156.0357
250.000000 86.041 156.0509
254.000000 85.974 156.0541
258.000000 85.902 156.0562
262.000000 85.828 156.0860
265.000000 85.772 156.1023
269.000000 85.694 156.1183
272.000000 85.633 156.1427
276.000000 85.554 156.1912
280.000000 85.476 156.2489
285.000000 85.376 156.3701
290.000000 85.276 156.5267
295.000000 85.178 156.6974
300.000000 85.090 156.8720
304.000000 85.022 157.0293
307.000000 84.969 157.1469
311.000000 84.899 157.3069
315.000000 84.832 157.4792
320.000000 84.749 157.6890
325.000000 84.666 157.9176
330.000000 84.587 158.1382
335.000000 84.509 158.3595
340.000000 84.428 158.5894
345.000000 84.348 158.8590
350.000000 84.273 159.1284
355.000000 84.203 159.3807
360.000000 84.134 159.6502
365.000000 84.065 159.9527
370.000000 83.998 160.2635
375.000000 83.934 160.5514
382.000000 83.846 160.9246
387.000000 83.782 161.2032
395.000000 83.683 161.6775
400.000000 83.623 161.9904
406.000000 83.553 162.3670
412.000000 83.482 162.7585
418.000000 83.412 163.1459
425.000000 83.335 163.5720
431.000000 83.272 163.9294
437.000000 83.211 164.2981
444.000000 83.139 164.7325
450.000000 83.077 165.1166
455.000000 83.026 165.4759
462.000000 82.960 165.9934
468.000000 82.907 166.4229
475.000000 82.848 166.9022
482.000000 82.791 167.3616
487.000000 82.749 167.6967
494.000000 82.689 168.1962
500.000000 82.641 168.6287
508.000000 82.583 169.1974
515.000000 82.534 169.6977
522.000000 82.483 170.2076
530.000000 82.426 170.7742
538.000000 82.373 171.3609
545.000000 82.329 171.8956
552.000000 82.285 172.4160
560.000000 82.237 172.9825
570.000000 82.176 173.7190
580.000000 82.120 174.4710
590.000000 82.072 175.2050
600.000000 82.025 175.9399
608.000000 81.990 176.5437
615.000000 81.960 177.0613
622.000000 81.931 177.5886
630.000000 81.902 178.2079
640.000000 81.868 178.9696
650.000000 81.835 179.7339
660.000000 81.803 -179.4726
670.000000 81.775 -178.6712
680.000000 81.748 -177.8952
690.000000 81.728 -177.1205
700.000000 81.710 -176.3686
710.000000 81.697 -175.6140
720.000000 81.686 -174.8215
730.000000 81.677 -174.0216
740.000000 81.670 -173.2264
750.000000 81.667 -172.4409
762.000000 81.668 -171.5204
775.000000 81.672 -170.5333
788.000000 81.684 -169.5280
800.000000 81.700 -168.5956
812.000000 81.717 -167.6861
825.000000 81.742 -166.7181
838.000000 81.773 -165.7782
850.000000 81.807 -164.9364
862.000000 81.846 -164.0796
875.000000 81.894 -163.1528
885.000000 81.932 -162.4589
900.000000 81.997 -161.4496
912.000000 82.052 -160.6798
925.000000 82.113 -159.8835
938.000000 82.180 -159.1134
950.000000 82.246 -158.4131
962.000000 82.312 -157.7347
975.000000 82.384 -157.0399
988.000000 82.460 -156.3851
1000.000000 82.534 -155.8109
1015.000000 82.626 -155.1111
1030.000000 82.717 -154.4405
1044.000000 82.805 -153.8620
1060.000000 82.905 -153.2620
1075.000000 82.996 -152.7376
1090.000000 83.088 -152.2225
1106.000000 83.187 -151.7056
1120.000000 83.270 -151.2975
1138.000000 83.371 -150.8065
1150.000000 83.438 -150.5009
1172.000000 83.559 -149.9749
1180.000000 83.603 -149.7871
1206.000000 83.746 -149.1917
1220.000000 83.818 -148.8889
1241.000000 83.921 -148.4677
1250.000000 83.964 -148.2918
1265.000000 84.035 -148.0058
1280.000000 84.106 -147.7311
1315.000000 84.270 -147.0979
1320.000000 84.293 -147.0108
1340.000000 84.380 -146.6685
1360.000000 84.470 -146.3416
1380.000000 84.561 -146.0307
1400.000000 84.648 -145.7294
1430.000000 84.774 -145.2855
1450.000000 84.855 -144.9922
1475.000000 84.962 -144.6362
1500.000000 85.071 -144.2811
1525.000000 85.175 -143.9517
1550.000000 85.279 -143.6430
1575.000000 85.385 -143.3301
1600.000000 85.491 -143.0334
1625.000000 85.597 -142.7760
1650.000000 85.708 -142.5263
1675.000000 85.819 -142.2754
1700.000000 85.929 -142.0446
1725.000000 86.042 -141.8477
1750.000000 86.155 -141.6782
1775.000000 86.269 -141.5380
1800.000000 86.385 -141.4388
1825.000000 86.501 -141.3890
1850.000000 86.613 -141.3702
1875.000000 86.724 -141.3814
1900.000000 86.833 -141.4311
1925.000000 86.941 -141.5245
1950.000000 87.046 -141.6497
1975.000000 87.148 -141.8047
2000.000000 87.246 -141.9926
2030.000000 87.360 -142.2563
2060.000000 87.466 -142.5574
2090.000000 87.565 -142.8924
2120.000000 87.657 -143.2567
2140.000000 87.714 -143.5125
2180.000000 87.818 -144.0463
2200.000000 87.864 -144.3225
2240.000000 87.947 -144.8869
2270.000000 88.002 -145.3182
2300.000000 88.050 -145.7402
2330.000000 88.091 -146.1500
2360.000000 88.126 -146.5473
2400.000000 88.167 -147.0666
2430.000000 88.193 -147.4312
2470.000000 88.225 -147.8926
2500.000000 88.247 -148.2305
2540.000000 88.273 -148.6643
2580.000000 88.295 -149.1031
2620.000000 88.315 -149.5620
2650.000000 88.326 -149.9191
2690.000000 88.334 -150.4060
2720.000000 88.336 -150.7694
2760.000000 88.334 -151.2598
2800.000000 88.327 -151.7680
2850.000000 88.306 -152.4369
2900.000000 88.264 -153.1504
2950.000000 88.193 -153.8812
3000.000000 88.088 -154.5370
3040.000000 87.983 -154.9319
3070.000000 87.896 -155.1340
3110.000000 87.776 -155.2668
3150.000000 87.657 -155.2631
3200.000000 87.515 -155.1109
3250.000000 87.380 -154.8172
3300.000000 87.256 -154.4099
3350.000000 87.142 -153.9148
3400.000000 87.040 -153.3326
3450.000000 86.950 -152.6917
3500.000000 86.870 -152.0148
3550.000000 86.801 -151.2815
3600.000000 86.743 -150.5163
3650.000000 86.695 -149.7374
3700.000000 86.657 -148.9422
3750.000000 86.630 -148.1309
3820.000000 86.611 -146.9744
3870.000000 86.610 -146.1575
3950.000000 86.631 -144.8892
4000.000000 86.658 -144.1246
4060.000000 86.703 -143.2511
4120.000000 86.760 -142.4250
4180.000000 86.828 -141.6485
4250.000000 86.923 -140.8253
4310.000000 87.016 -140.2145
4370.000000 87.122 -139.7144
4440.000000 87.259 -139.2756
4500.000000 87.381 -139.0727
4550.000000 87.484 -139.0368
4620.000000 87.622 -139.1892
4680.000000 87.727 -139.5120
4750.000000 87.829 -140.0969
4820.000000 87.899 -140.8822
4870.000000 87.921 -141.5346
4940.000000 87.902 -142.4757
5000.000000 87.845 -143.1825
5080.000000 87.734 -143.8714
5150.000000 87.627 -144.2604
5220.000000 87.516 -144.5363
5300.000000 87.379 -144.7802
5380.000000 87.221 -144.9296
5450.000000 87.062 -144.9207
5520.000000 86.889 -144.7003
5600.000000 86.693 -144.1235
5700.000000 86.485 -142.9971
5800.000000 86.338 -141.7209
5900.000000 86.233 -140.5008
6000.000000 86.140 -139.3298
6080.000000 86.069 -138.3943
6150.000000 86.011 -137.5332
6220.000000 85.959 -136.6164
6300.000000 85.908 -135.4949
6400.000000 85.863 -133.9844
6500.000000 85.846 -132.4022
6600.000000 85.859 -130.7757
6700.000000 85.896 -129.1489
6800.000000 85.944 -127.4985
6900.000000 86.006 -125.6263
7000.000000 86.126 -123.3977
7100.000000 86.351 -121.0087
7200.000000 86.697 -118.7679
7300.000000 87.158 -116.9163
7400.000000 87.722 -115.6692
7500.000000 88.365 -115.2234
7620.000000 89.202 -115.9808
7750.000000 90.127 -118.6261
7880.000000 90.980 -123.4210
8000.000000 91.584 -129.7760
8120.000000 91.904 -137.4854
8250.000000 91.879 -146.2785
8380.000000 91.516 -154.4204
8500.000000 90.984 -160.9516
8620.000000 90.333 -166.7207
8750.000000 89.486 -172.3285
8850.000000 88.703 -176.0131
9000.000000 87.294 -179.5192
9120.000000 86.055 -179.4139
9250.000000 84.953 -176.3559
9380.000000 84.422 -172.9271
9500.000000 84.275 -171.6885
9620.000000 84.146 -172.5662
9750.000000 83.852 -174.9663
9880.000000 83.381 -178.2144
10000.000000 82.744 177.8944
10150.000000 81.364 173.5494
10300.000000 79.206 176.3488
10440.000000 77.469 -173.4196
10600.000000 76.958 -161.6383
10750.000000 77.196 -154.8287
10900.000000 77.520 -151.0166
11060.000000 77.897 -149.2200
11200.000000 78.215 -150.1638
11380.000000 78.180 -155.7158
11500.000000 77.534 -159.9012
11720.000000 75.213 -157.8150
11800.000000 74.416 -153.6279
12060.000000 73.359 -137.9500
12200.000000 73.429 -130.7518
12410.000000 73.930 -122.1711
12500.000000 74.218 -119.3348
12650.000000 74.746 -115.5187
12800.000000 75.318 -112.7237
13150.000000 76.599 -108.8536
13200.000000 76.804 -108.4167
13400.000000 77.792 -107.4195
13600.000000 78.910 -109.2382
13800.000000 79.792 -114.6305
14000.000000 80.127 -121.9214
14300.000000 79.657 -128.1354
14500.000000 79.706 -125.8147
14750.000000 81.185 -123.8556
15000.000000 83.084 -129.5303
15250.000000 84.613 -141.3806
15500.000000 85.858 -155.2871
15750.000000 87.230 -172.2479
16000.000000 88.327 164.9181
16250.000000 88.993 135.2336
16500.000000 88.524 97.0733
16750.000000 86.143 59.4769
17000.000000 81.722 38.5020
17250.000000 76.122 37.8964
17500.000000 71.636 42.6169
17750.000000 69.188 44.6443
18000.000000 67.849 44.7868
18250.000000 67.233 41.1839
18500.000000 66.888 33.1118
18750.000000 66.604 21.2150
19000.000000 66.297 4.8341
19250.000000 65.709 -16.2343
19500.000000 64.652 -40.3450
19750.000000 63.263 -64.1538
