* Measurement data measured by REW V5.20.9
* Source: Frequency Response Averaged data
* Format: Averaged data produced from the rms magnitudes of Chu Jul 13, Chu Jul 13, Chu Jul 13
* Dated: 13/07/2022 8:03:55 PM
* REW Settings:
*  C-weighting compensation: Off
*  Target level: 75.0 dB
* Note: ; Averaged data produced from the rms magnitudes of Chu Jul 13, Chu Jul 13, Chu Jul 13
* Measurement: Ola R
* Smoothing: 1/24 octave
* Frequency Step: 1/48 octave
* Start Frequency: 2.200 Hz
*
* Freq(Hz) SPL(dB)
2.200000 61.150
2.240000 61.341
2.270000 61.484
2.300000 61.627
2.330000 61.770
2.360000 61.913
2.400000 62.104
2.430000 62.247
2.470000 62.437
2.500000 62.580
2.540000 62.771
2.580000 62.967
2.620000 63.179
2.650000 63.343
2.690000 63.567
2.720000 63.736
2.760000 63.961
2.800000 64.180
2.850000 64.440
2.900000 64.679
2.950000 64.889
3.000000 65.072
3.040000 65.203
3.070000 65.294
3.110000 65.408
3.150000 65.517
3.200000 65.648
3.250000 65.780
3.300000 65.918
3.350000 66.058
3.400000 66.195
3.450000 66.330
3.500000 66.463
3.550000 66.594
3.600000 66.724
3.650000 66.853
3.700000 66.981
3.750000 67.105
3.820000 67.275
3.870000 67.396
3.950000 67.592
4.000000 67.717
4.060000 67.871
4.120000 68.029
4.180000 68.188
4.250000 68.377
4.310000 68.541
4.370000 68.708
4.440000 68.907
4.500000 69.082
4.550000 69.230
4.620000 69.439
4.680000 69.618
4.750000 69.825
4.820000 70.031
4.870000 70.179
4.940000 70.386
5.000000 70.561
5.080000 70.791
5.150000 70.987
5.220000 71.179
5.300000 71.394
5.380000 71.604
5.450000 71.782
5.520000 71.953
5.600000 72.142
5.700000 72.367
5.800000 72.584
5.900000 72.791
6.000000 72.988
6.080000 73.140
6.150000 73.269
6.220000 73.397
6.300000 73.540
6.400000 73.713
6.500000 73.883
6.600000 74.052
6.700000 74.220
6.800000 74.387
6.900000 74.553
7.000000 74.719
7.100000 74.886
7.200000 75.052
7.300000 75.216
7.400000 75.377
7.500000 75.537
7.620000 75.725
7.750000 75.920
7.880000 76.107
8.000000 76.272
8.120000 76.428
8.250000 76.587
8.380000 76.736
8.500000 76.867
8.620000 76.991
8.750000 77.119
8.850000 77.217
9.000000 77.359
9.120000 77.473
9.250000 77.600
9.380000 77.728
9.500000 77.850
9.620000 77.978
9.750000 78.120
9.880000 78.265
10.000000 78.402
10.150000 78.576
10.300000 78.746
10.440000 78.904
10.600000 79.076
10.750000 79.227
10.900000 79.369
11.060000 79.504
11.200000 79.609
11.380000 79.727
11.500000 79.793
11.720000 79.892
11.800000 79.922
12.060000 79.999
12.200000 80.034
12.410000 80.079
12.500000 80.100
12.650000 80.137
12.800000 80.180
13.150000 80.321
13.200000 80.346
13.400000 80.459
13.600000 80.586
13.800000 80.726
14.000000 80.866
14.300000 81.071
14.500000 81.195
14.750000 81.342
15.000000 81.485
15.250000 81.643
15.500000 81.831
15.750000 82.055
16.000000 82.313
16.250000 82.579
16.500000 82.834
16.750000 83.048
17.000000 83.200
17.250000 83.288
17.500000 83.310
17.750000 83.294
18.000000 83.267
18.250000 83.257
18.500000 83.299
18.750000 83.392
19.000000 83.534
19.250000 83.692
19.500000 83.842
19.750000 83.965
20.000000 84.043
20.299999 84.088
20.600000 84.095
20.900000 84.093
21.200001 84.107
21.400000 84.131
21.799999 84.205
22.000000 84.249
22.400000 84.334
22.700001 84.389
23.000000 84.441
23.299999 84.494
23.600000 84.553
24.000000 84.640
24.299999 84.709
24.700001 84.800
25.000000 84.871
25.400000 84.972
25.799999 85.081
26.200001 85.192
26.500000 85.268
26.900000 85.357
27.200001 85.415
27.600000 85.487
28.000000 85.561
28.500000 85.655
29.000000 85.743
29.500000 85.820
30.000000 85.892
30.400000 85.953
30.700001 86.002
31.100000 86.066
31.500000 86.125
32.000000 86.176
32.500000 86.194
33.000000 86.187
33.500000 86.181
34.000000 86.211
34.500000 86.290
35.000000 86.398
35.500000 86.497
36.000000 86.565
36.500000 86.605
37.000000 86.637
37.500000 86.678
38.200001 86.747
38.700001 86.789
39.500000 86.824
40.000000 86.838
40.599998 86.869
41.200001 86.921
41.799999 86.988
42.500000 87.068
43.099998 87.117
43.700001 87.131
44.400002 87.127
45.000000 87.162
45.500000 87.233
46.200001 87.334
46.799999 87.355
47.500000 87.319
48.200001 87.311
48.700001 87.345
49.400002 87.407
50.000000 87.431
50.799999 87.425
51.500000 87.420
52.200001 87.431
53.000000 87.457
53.799999 87.502
54.500000 87.580
55.200001 87.682
56.000000 87.756
57.000000 87.716
58.000000 87.644
59.000000 87.640
60.000000 87.662
60.799999 87.695
61.500000 87.731
62.200001 87.753
63.000000 87.751
64.000000 87.746
65.000000 87.780
66.000000 87.817
67.000000 87.824
68.000000 87.830
69.000000 87.843
70.000000 87.847
71.000000 87.841
72.000000 87.836
73.000000 87.839
74.000000 87.843
75.000000 87.847
76.199997 87.841
77.500000 87.842
78.800003 87.861
80.000000 87.881
81.199997 87.940
82.500000 88.004
83.800003 88.034
85.000000 88.046
86.199997 88.036
87.500000 88.012
88.500000 87.980
90.000000 87.946
91.199997 87.925
92.500000 87.919
93.800003 87.919
95.000000 87.880
96.199997 87.816
97.500000 87.773
98.800003 87.751
100.000000 87.750
101.500000 87.755
103.000000 87.729
104.400002 87.700
106.000000 87.698
107.500000 87.696
109.000000 87.665
110.599998 87.598
112.000000 87.524
113.800003 87.407
115.000000 87.326
117.199997 87.300
118.000000 87.314
120.599998 87.306
122.000000 87.312
124.099998 87.335
125.000000 87.334
126.500000 87.310
128.000000 87.267
131.500000 87.092
132.000000 87.066
134.000000 86.974
136.000000 86.888
138.000000 86.831
140.000000 86.826
143.000000 86.973
145.000000 87.128
147.500000 87.306
150.000000 87.470
152.500000 87.602
155.000000 87.683
157.500000 87.701
160.000000 87.728
162.500000 87.741
165.000000 87.733
167.500000 87.728
170.000000 87.723
172.500000 87.710
175.000000 87.691
177.500000 87.672
180.000000 87.655
182.500000 87.642
185.000000 87.628
187.500000 87.607
190.000000 87.585
192.500000 87.558
195.000000 87.525
197.500000 87.501
200.000000 87.483
203.000000 87.455
206.000000 87.420
209.000000 87.384
212.000000 87.347
214.000000 87.326
218.000000 87.288
220.000000 87.270
224.000000 87.240
227.000000 87.224
230.000000 87.214
233.000000 87.207
236.000000 87.204
240.000000 87.205
243.000000 87.202
247.000000 87.186
250.000000 87.169
254.000000 87.147
258.000000 87.122
262.000000 87.091
265.000000 87.068
269.000000 87.036
272.000000 87.010
276.000000 86.973
280.000000 86.940
285.000000 86.899
290.000000 86.855
295.000000 86.810
300.000000 86.768
304.000000 86.734
307.000000 86.708
311.000000 86.673
315.000000 86.637
320.000000 86.594
325.000000 86.551
330.000000 86.508
335.000000 86.470
340.000000 86.435
345.000000 86.395
350.000000 86.349
355.000000 86.306
360.000000 86.265
365.000000 86.229
370.000000 86.193
375.000000 86.157
382.000000 86.108
387.000000 86.073
395.000000 86.014
400.000000 85.976
406.000000 85.931
412.000000 85.892
418.000000 85.853
425.000000 85.814
431.000000 85.781
437.000000 85.742
444.000000 85.700
450.000000 85.665
455.000000 85.633
462.000000 85.590
468.000000 85.555
475.000000 85.514
482.000000 85.477
487.000000 85.452
494.000000 85.418
500.000000 85.391
508.000000 85.356
515.000000 85.322
522.000000 85.292
530.000000 85.258
538.000000 85.227
545.000000 85.203
552.000000 85.178
560.000000 85.146
570.000000 85.111
580.000000 85.080
590.000000 85.052
600.000000 85.031
608.000000 85.016
615.000000 85.006
622.000000 85.000
630.000000 85.000
640.000000 85.016
650.000000 85.058
660.000000 85.095
670.000000 85.098
680.000000 85.074
690.000000 85.054
700.000000 85.058
710.000000 85.082
720.000000 85.130
730.000000 85.213
740.000000 85.341
750.000000 85.509
762.000000 85.671
775.000000 85.613
788.000000 85.377
800.000000 85.215
812.000000 85.154
825.000000 85.159
838.000000 85.202
850.000000 85.260
862.000000 85.327
875.000000 85.409
885.000000 85.477
900.000000 85.586
912.000000 85.681
925.000000 85.792
938.000000 85.907
950.000000 86.016
962.000000 86.127
975.000000 86.253
988.000000 86.382
1000.000000 86.503
1015.000000 86.659
1030.000000 86.816
1044.000000 86.961
1060.000000 87.128
1075.000000 87.285
1090.000000 87.442
1106.000000 87.609
1120.000000 87.753
1138.000000 87.937
1150.000000 88.058
1172.000000 88.274
1180.000000 88.351
1206.000000 88.600
1220.000000 88.732
1241.000000 88.927
1250.000000 89.010
1265.000000 89.147
1280.000000 89.283
1315.000000 89.591
1320.000000 89.635
1340.000000 89.806
1360.000000 89.975
1380.000000 90.141
1400.000000 90.305
1430.000000 90.543
1450.000000 90.699
1475.000000 90.890
1500.000000 91.072
1525.000000 91.247
1550.000000 91.415
1575.000000 91.575
1600.000000 91.727
1625.000000 91.869
1650.000000 92.003
1675.000000 92.128
1700.000000 92.245
1725.000000 92.355
1750.000000 92.458
1775.000000 92.554
1800.000000 92.644
1825.000000 92.727
1850.000000 92.803
1875.000000 92.875
1900.000000 92.940
1925.000000 92.999
1950.000000 93.054
1975.000000 93.104
2000.000000 93.148
2030.000000 93.194
2060.000000 93.233
2090.000000 93.263
2120.000000 93.287
2140.000000 93.298
2180.000000 93.310
2200.000000 93.311
2240.000000 93.303
2270.000000 93.288
2300.000000 93.265
2330.000000 93.234
2360.000000 93.196
2400.000000 93.134
2430.000000 93.080
2470.000000 92.999
2500.000000 92.931
2540.000000 92.833
2580.000000 92.727
2620.000000 92.616
2650.000000 92.531
2690.000000 92.420
2720.000000 92.340
2760.000000 92.243
2800.000000 92.156
2850.000000 92.056
2900.000000 91.952
2950.000000 91.833
3000.000000 91.698
3040.000000 91.581
3070.000000 91.489
3110.000000 91.365
3150.000000 91.241
3200.000000 91.087
3250.000000 90.936
3300.000000 90.790
3350.000000 90.648
3400.000000 90.511
3450.000000 90.380
3500.000000 90.255
3550.000000 90.134
3600.000000 90.020
3650.000000 89.913
3700.000000 89.812
3750.000000 89.719
3820.000000 89.604
3870.000000 89.534
3950.000000 89.443
4000.000000 89.397
4060.000000 89.355
4120.000000 89.323
4180.000000 89.299
4250.000000 89.283
4310.000000 89.280
4370.000000 89.285
4440.000000 89.297
4500.000000 89.313
4550.000000 89.332
4620.000000 89.364
4680.000000 89.398
4750.000000 89.446
4820.000000 89.501
4870.000000 89.545
4940.000000 89.611
5000.000000 89.672
5080.000000 89.758
5150.000000 89.837
5220.000000 89.917
5300.000000 90.010
5380.000000 90.101
5450.000000 90.176
5520.000000 90.244
5600.000000 90.309
5700.000000 90.348
5800.000000 90.341
5900.000000 90.520
6000.000000 90.806
6080.000000 90.883
6150.000000 90.899
6220.000000 90.902
6300.000000 90.900
6400.000000 90.893
6500.000000 90.883
6600.000000 90.872
6700.000000 90.864
6800.000000 90.857
6900.000000 90.849
7000.000000 90.838
7100.000000 90.825
7200.000000 90.803
7300.000000 90.760
7400.000000 90.683
7500.000000 90.562
7620.000000 90.348
7750.000000 90.027
7880.000000 89.632
8000.000000 89.241
8120.000000 88.874
8250.000000 88.557
8380.000000 88.347
8500.000000 88.233
8620.000000 88.151
8750.000000 88.014
8850.000000 87.808
9000.000000 87.249
9120.000000 86.579
9250.000000 85.684
9380.000000 84.692
9500.000000 83.755
9620.000000 82.838
9750.000000 81.896
9880.000000 81.020
10000.000000 80.274
10150.000000 79.429
10300.000000 78.682
10440.000000 78.074
10600.000000 77.469
10750.000000 76.964
10900.000000 76.500
11060.000000 76.054
11200.000000 75.716
11380.000000 75.355
11500.000000 75.158
11720.000000 74.881
11800.000000 74.808
12060.000000 74.678
12200.000000 74.671
12410.000000 74.745
12500.000000 74.812
12650.000000 74.978
12800.000000 75.209
13150.000000 76.060
13200.000000 76.224
13400.000000 77.013
13600.000000 78.056
13800.000000 79.421
14000.000000 81.194
14300.000000 84.648
14500.000000 86.876
14750.000000 88.037
15000.000000 86.550
15250.000000 83.309
15500.000000 79.896
15750.000000 77.084
16000.000000 74.857
16250.000000 73.039
16500.000000 71.560
16750.000000 70.518
17000.000000 70.156
17250.000000 70.315
17500.000000 70.253
17750.000000 69.866
18000.000000 69.391
18250.000000 68.816
18500.000000 68.138
18750.000000 67.389
19000.000000 66.590
19250.000000 65.712
19500.000000 64.704
19750.000000 63.614
