* Measurement data measured by REW V5.20.9
* Source: USB-C to 3.5mm Headphone Jack Adapter, USB-C to 3.5mm Headphone Jack Adapter, 0, volume: 0.138
* Format: 256k Log Swept Sine, 1 sweep at -12.0 dBFS with no timing reference
* Dated: 18/01/2023 7:26:09 PM
* REW Settings:
*  C-weighting compensation: Off
*  Target level: 75.0 dB
* Note: ; 
* Measurement: AFUL P5 R
* Smoothing: 1/24 octave
* Frequency Step: 1/48 octave
* Start Frequency: 1.000 Hz
*
* Freq(Hz) SPL(dB) Phase(degrees)
1.000000 64.210 65.0795
1.015000 64.389 64.2530
1.030000 64.565 63.4791
1.044000 64.727 62.8010
1.060000 64.909 62.0737
1.075000 65.076 61.4336
1.090000 65.242 60.8297
1.106000 65.416 60.2206
1.120000 65.566 59.7133
1.138000 65.757 59.0905
1.150000 65.883 58.6904
1.172000 66.111 57.9801
1.180000 66.194 57.7271
1.206000 66.459 56.9143
1.220000 66.600 56.4769
1.241000 66.811 55.8117
1.250000 66.901 55.5207
1.265000 67.050 55.0247
1.280000 67.199 54.5110
1.315000 67.547 53.2201
1.320000 67.597 53.0228
1.340000 67.795 52.1952
1.360000 67.995 51.3074
1.380000 68.193 50.3810
1.400000 68.390 49.4217
1.430000 68.683 47.9309
1.450000 68.877 46.9089
1.475000 69.117 45.6074
1.500000 69.356 44.2876
1.525000 69.593 42.9579
1.550000 69.827 41.6271
1.575000 70.060 40.3037
1.600000 70.291 38.9965
1.625000 70.520 37.7141
1.650000 70.746 36.4651
1.675000 70.971 35.2583
1.700000 71.193 34.0960
1.725000 71.413 32.9635
1.750000 71.632 31.8562
1.775000 71.848 30.7702
1.800000 72.062 29.7016
1.825000 72.274 28.6466
1.850000 72.484 27.6014
1.875000 72.692 26.5621
1.900000 72.898 25.5248
1.925000 73.102 24.4858
1.950000 73.305 23.4412
1.975000 73.505 22.3871
2.000000 73.704 21.3197
2.030000 73.940 20.0172
2.060000 74.174 18.7005
2.090000 74.405 17.3748
2.120000 74.633 16.0421
2.140000 74.783 15.1508
2.180000 75.081 13.3645
2.200000 75.228 12.4707
2.240000 75.518 10.6849
2.270000 75.732 9.3498
2.300000 75.944 8.0205
2.330000 76.153 6.6993
2.360000 76.359 5.3881
2.400000 76.629 3.6451
2.430000 76.828 2.3390
2.470000 77.090 0.6015
2.500000 77.283 -0.6971
2.540000 77.535 -2.4198
2.580000 77.783 -4.1299
2.620000 78.026 -5.8244
2.650000 78.205 -7.0832
2.690000 78.439 -8.7430
2.720000 78.611 -9.9731
2.760000 78.836 -11.5955
2.800000 79.057 -13.1998
2.850000 79.325 -15.1831
2.900000 79.586 -17.1462
2.950000 79.839 -19.0937
3.000000 80.084 -21.0300
3.040000 80.275 -22.5744
3.070000 80.416 -23.7340
3.110000 80.598 -25.2802
3.150000 80.776 -26.8214
3.200000 80.991 -28.7326
3.250000 81.199 -30.6168
3.300000 81.400 -32.4635
3.350000 81.595 -34.2619
3.400000 81.782 -36.0064
3.450000 81.963 -37.7068
3.500000 82.136 -39.3671
3.550000 82.302 -40.9911
3.600000 82.463 -42.5821
3.650000 82.617 -44.1439
3.700000 82.767 -45.6799
3.750000 82.910 -47.1948
3.820000 83.100 -49.2766
3.870000 83.229 -50.7274
3.950000 83.426 -52.9694
4.000000 83.543 -54.3116
4.060000 83.680 -55.8531
4.120000 83.810 -57.3225
4.180000 83.933 -58.7266
4.250000 84.070 -60.2890
4.310000 84.183 -61.5695
4.370000 84.295 -62.8013
4.440000 84.423 -64.1737
4.500000 84.527 -65.2898
4.550000 84.612 -66.1798
4.620000 84.730 -67.3689
4.680000 84.830 -68.3389
4.750000 84.949 -69.4127
4.820000 85.067 -70.4095
4.870000 85.151 -71.0814
4.940000 85.268 -71.9789
5.000000 85.371 -72.7193
5.080000 85.510 -73.6784
5.150000 85.634 -74.4693
5.220000 85.760 -75.2215
5.300000 85.906 -76.0533
5.380000 86.053 -76.8770
5.450000 86.184 -77.5908
5.520000 86.317 -78.2867
5.600000 86.470 -79.0709
5.700000 86.661 -80.0533
5.800000 86.850 -81.0482
5.900000 87.038 -82.0443
6.000000 87.224 -83.0475
6.080000 87.367 -83.8600
6.150000 87.491 -84.5802
6.220000 87.612 -85.3064
6.300000 87.747 -86.1390
6.400000 87.909 -87.1760
6.500000 88.063 -88.2120
6.600000 88.210 -89.2469
6.700000 88.351 -90.2716
6.800000 88.484 -91.2815
6.900000 88.610 -92.2815
7.000000 88.730 -93.2662
7.100000 88.844 -94.2298
7.200000 88.953 -95.1729
7.300000 89.056 -96.0978
7.400000 89.155 -97.0058
7.500000 89.249 -97.8961
7.620000 89.357 -98.9417
7.750000 89.468 -100.0531
7.880000 89.574 -101.1432
8.000000 89.665 -102.1307
8.120000 89.752 -103.1036
8.250000 89.840 -104.1415
8.380000 89.922 -105.1597
8.500000 89.993 -106.0814
8.620000 90.059 -106.9862
8.750000 90.127 -107.9418
8.850000 90.176 -108.6579
9.000000 90.244 -109.7030
9.120000 90.298 -110.5139
9.250000 90.353 -111.3642
9.380000 90.408 -112.1928
9.500000 90.459 -112.9431
9.620000 90.510 -113.6761
9.750000 90.565 -114.4659
9.880000 90.623 -115.2558
10.000000 90.676 -115.9843
10.150000 90.743 -116.9100
10.300000 90.809 -117.8521
10.440000 90.868 -118.7454
10.600000 90.933 -119.7886
10.750000 90.988 -120.7750
10.900000 91.038 -121.7625
11.060000 91.085 -122.8098
11.200000 91.120 -123.7003
11.380000 91.160 -124.8124
11.500000 91.184 -125.5170
11.720000 91.224 -126.7354
11.800000 91.239 -127.1545
12.060000 91.292 -128.4245
12.200000 91.326 -129.0706
12.410000 91.385 -129.9976
12.500000 91.413 -130.3951
12.650000 91.465 -131.0523
12.800000 91.519 -131.7218
13.150000 91.651 -133.3590
13.200000 91.670 -133.6025
13.400000 91.742 -134.5959
13.600000 91.806 -135.6034
13.800000 91.862 -136.6112
14.000000 91.908 -137.5958
14.300000 91.963 -138.9904
14.500000 91.994 -139.8527
14.750000 92.027 -140.8470
15.000000 92.061 -141.7630
15.250000 92.095 -142.6195
15.500000 92.131 -143.4333
15.750000 92.167 -144.2213
16.000000 92.203 -144.9904
16.250000 92.237 -145.7420
16.500000 92.271 -146.4772
16.750000 92.303 -147.1978
17.000000 92.334 -147.9119
17.250000 92.364 -148.6263
17.500000 92.392 -149.3468
17.750000 92.418 -150.0766
18.000000 92.438 -150.8079
18.250000 92.453 -151.5307
18.500000 92.465 -152.2342
18.750000 92.473 -152.9072
19.000000 92.482 -153.5500
19.250000 92.492 -154.1701
19.500000 92.506 -154.7780
19.750000 92.522 -155.3909
20.000000 92.540 -156.0179
20.299999 92.561 -156.7895
20.600000 92.577 -157.5704
20.900000 92.589 -158.3376
21.200001 92.599 -159.0691
21.400000 92.605 -159.5314
21.799999 92.622 -160.4129
22.000000 92.635 -160.8464
22.400000 92.664 -161.7332
22.700001 92.685 -162.4353
23.000000 92.701 -163.1638
23.299999 92.708 -163.8954
23.600000 92.705 -164.5971
24.000000 92.691 -165.4351
24.299999 92.680 -165.9785
24.700001 92.674 -166.6170
25.000000 92.679 -167.0782
25.400000 92.696 -167.7374
25.799999 92.713 -168.4898
26.200001 92.720 -169.3128
26.500000 92.714 -169.9323
26.900000 92.695 -170.6994
27.200001 92.679 -171.2102
27.600000 92.664 -171.8252
28.000000 92.660 -172.4217
28.500000 92.665 -173.2204
29.000000 92.666 -174.0658
29.500000 92.660 -174.8699
30.000000 92.662 -175.6063
30.400000 92.674 -176.2071
30.700001 92.685 -176.7044
31.100000 92.694 -177.4401
31.500000 92.684 -178.2059
32.000000 92.647 -179.0607
32.500000 92.599 -179.6944
33.000000 92.568 179.8370
33.500000 92.561 179.3710
34.000000 92.560 178.7985
34.500000 92.548 178.1501
35.000000 92.521 177.5290
35.500000 92.491 176.9848
36.000000 92.468 176.4747
36.500000 92.451 175.9350
37.000000 92.431 175.3591
37.500000 92.407 174.7883
38.200001 92.377 174.0201
38.700001 92.361 173.4373
39.500000 92.321 172.4155
40.000000 92.282 171.8272
40.599998 92.235 171.2551
41.200001 92.206 170.7484
41.799999 92.188 170.2048
42.500000 92.167 169.5409
43.099998 92.152 168.9881
43.700001 92.144 168.3995
44.400002 92.127 167.6313
45.000000 92.098 166.9888
45.500000 92.067 166.5182
46.200001 92.026 165.9406
46.799999 91.994 165.4816
47.500000 91.956 164.9766
48.200001 91.920 164.4872
48.700001 91.892 164.1382
49.400002 91.852 163.6703
50.000000 91.821 163.2825
50.799999 91.786 162.7087
51.500000 91.751 162.1443
52.200001 91.713 161.5782
53.000000 91.673 160.9212
53.799999 91.630 160.2391
54.500000 91.587 159.6911
55.200001 91.547 159.2188
56.000000 91.513 158.7162
57.000000 91.475 158.0277
58.000000 91.412 157.3119
59.000000 91.331 156.8099
60.000000 91.279 156.3854
60.799999 91.247 155.9296
61.500000 91.219 155.4745
62.200001 91.195 154.9555
63.000000 91.159 154.2729
64.000000 91.097 153.4963
65.000000 91.047 152.8210
66.000000 90.982 152.0816
67.000000 90.883 151.6077
68.000000 90.800 151.4070
69.000000 90.740 151.2570
70.000000 90.711 151.0094
71.000000 90.687 150.4086
72.000000 90.625 149.6318
73.000000 90.540 148.9716
74.000000 90.466 148.4933
75.000000 90.421 148.0580
76.199997 90.371 147.4438
77.500000 90.301 146.8834
78.800003 90.232 146.4003
80.000000 90.167 145.9647
81.199997 90.104 145.4718
82.500000 90.029 144.9134
83.800003 89.956 144.4301
85.000000 89.902 144.0402
86.199997 89.857 143.5824
87.500000 89.790 142.9793
88.500000 89.720 142.5162
90.000000 89.603 141.8921
91.199997 89.513 141.4636
92.500000 89.431 141.0695
93.800003 89.362 140.7725
95.000000 89.315 140.5891
96.199997 89.278 140.3877
97.500000 89.235 140.0876
98.800003 89.171 139.6349
100.000000 89.090 139.2601
101.500000 89.011 138.7986
103.000000 88.942 138.2557
104.400002 88.884 137.8370
106.000000 88.820 137.4644
107.500000 88.750 137.1879
109.000000 88.666 136.8895
110.599998 88.564 136.4854
112.000000 88.486 136.0839
113.800003 88.416 135.5363
115.000000 88.384 135.2031
117.199997 88.316 134.9169
118.000000 88.297 134.9388
120.599998 88.216 134.5952
122.000000 88.128 134.2957
124.099998 88.017 133.8840
125.000000 87.984 133.6592
126.500000 87.933 133.2377
128.000000 87.872 132.8775
131.500000 87.715 132.2542
132.000000 87.692 132.1450
134.000000 87.591 131.6592
136.000000 87.489 131.2822
138.000000 87.402 130.9337
140.000000 87.312 130.5952
143.000000 87.179 130.0522
145.000000 87.076 129.7543
147.500000 86.953 129.5231
150.000000 86.825 129.3249
152.500000 86.681 129.2548
155.000000 86.543 129.3336
157.500000 86.408 129.5229
160.000000 86.288 129.9630
162.500000 86.205 130.6635
165.000000 86.192 131.5036
167.500000 86.269 132.0724
170.000000 86.394 132.0725
172.500000 86.510 131.5402
175.000000 86.577 130.6856
177.500000 86.596 129.7374
180.000000 86.578 128.7704
182.500000 86.526 127.8773
185.000000 86.455 127.1048
187.500000 86.374 126.4597
190.000000 86.293 125.9305
192.500000 86.218 125.4458
195.000000 86.141 124.9735
197.500000 86.060 124.5498
200.000000 85.979 124.1747
203.000000 85.886 123.7791
206.000000 85.799 123.4362
209.000000 85.718 123.0985
212.000000 85.635 122.7740
214.000000 85.581 122.5851
218.000000 85.480 122.2050
220.000000 85.431 121.9919
224.000000 85.336 121.5712
227.000000 85.267 121.2862
230.000000 85.199 121.0309
233.000000 85.133 120.7839
236.000000 85.067 120.5392
240.000000 84.980 120.2285
243.000000 84.915 120.0082
247.000000 84.829 119.7198
250.000000 84.770 119.4969
254.000000 84.701 119.2043
258.000000 84.630 118.9518
262.000000 84.554 118.6832
265.000000 84.500 118.4672
269.000000 84.431 118.1989
272.000000 84.381 118.0208
276.000000 84.319 117.8003
280.000000 84.260 117.5679
285.000000 84.188 117.2675
290.000000 84.113 116.9554
295.000000 84.042 116.7045
300.000000 83.975 116.4441
304.000000 83.925 116.2069
307.000000 83.888 116.0477
311.000000 83.838 115.8551
315.000000 83.788 115.6481
320.000000 83.727 115.3778
325.000000 83.673 115.0828
330.000000 83.622 114.7972
335.000000 83.568 114.5596
340.000000 83.521 114.2867
345.000000 83.472 114.0374
350.000000 83.428 113.8347
355.000000 83.381 113.6185
360.000000 83.333 113.3869
365.000000 83.292 113.1712
370.000000 83.250 112.9371
375.000000 83.208 112.6942
382.000000 83.158 112.3914
387.000000 83.130 112.1855
395.000000 83.077 111.8460
400.000000 83.040 111.6311
406.000000 83.000 111.3943
412.000000 82.974 111.2017
418.000000 82.953 110.9807
425.000000 82.912 110.6229
431.000000 82.878 110.3394
437.000000 82.843 110.0877
444.000000 82.801 109.7987
450.000000 82.771 109.5849
455.000000 82.751 109.4211
462.000000 82.721 109.2167
468.000000 82.691 109.0623
475.000000 82.661 108.9058
482.000000 82.633 108.8093
487.000000 82.617 108.7635
494.000000 82.610 108.7101
500.000000 82.623 108.6568
508.000000 82.656 108.4961
515.000000 82.683 108.2404
522.000000 82.703 107.8748
530.000000 82.721 107.4349
538.000000 82.730 107.0151
545.000000 82.732 106.6546
552.000000 82.730 106.3108
560.000000 82.725 105.9589
570.000000 82.719 105.5508
580.000000 82.719 105.1450
590.000000 82.718 104.7664
600.000000 82.717 104.4095
608.000000 82.719 104.1332
615.000000 82.725 103.9071
622.000000 82.731 103.6911
630.000000 82.739 103.4504
640.000000 82.752 103.1577
650.000000 82.769 102.8589
660.000000 82.784 102.5673
670.000000 82.798 102.2878
680.000000 82.816 102.0208
690.000000 82.839 101.7666
700.000000 82.865 101.5355
710.000000 82.894 101.3110
720.000000 82.926 101.0920
730.000000 82.959 100.8904
740.000000 82.995 100.7037
750.000000 83.034 100.5156
762.000000 83.086 100.2845
775.000000 83.146 100.0452
788.000000 83.212 99.8111
800.000000 83.279 99.5966
812.000000 83.350 99.3796
825.000000 83.429 99.1447
838.000000 83.513 98.9021
850.000000 83.595 98.6672
862.000000 83.683 98.4329
875.000000 83.784 98.1673
885.000000 83.863 97.9484
900.000000 83.984 97.5994
912.000000 84.086 97.3028
925.000000 84.201 96.9689
938.000000 84.321 96.6101
950.000000 84.434 96.2548
962.000000 84.548 95.8673
975.000000 84.673 95.4218
988.000000 84.800 94.9515
1000.000000 84.919 94.4886
1015.000000 85.069 93.8731
1030.000000 85.217 93.2176
1044.000000 85.354 92.5715
1060.000000 85.511 91.7928
1075.000000 85.656 91.0154
1090.000000 85.798 90.2083
1106.000000 85.946 89.3245
1120.000000 86.072 88.5275
1138.000000 86.231 87.4628
1150.000000 86.333 86.7314
1172.000000 86.515 85.3710
1180.000000 86.579 84.8734
1206.000000 86.779 83.2418
1220.000000 86.883 82.3582
1241.000000 87.031 81.0255
1250.000000 87.093 80.4521
1265.000000 87.192 79.4950
1280.000000 87.288 78.5371
1315.000000 87.508 76.3218
1320.000000 87.538 76.0083
1340.000000 87.656 74.7571
1360.000000 87.773 73.5062
1380.000000 87.887 72.2643
1400.000000 88.000 71.0378
1430.000000 88.169 69.2081
1450.000000 88.280 67.9871
1475.000000 88.418 66.4651
1500.000000 88.557 64.9287
1525.000000 88.695 63.3831
1550.000000 88.833 61.8318
1575.000000 88.973 60.2771
1600.000000 89.112 58.7042
1625.000000 89.253 57.1057
1650.000000 89.397 55.4828
1675.000000 89.544 53.8241
1700.000000 89.693 52.1264
1725.000000 89.844 50.3873
1750.000000 89.995 48.5892
1775.000000 90.147 46.7230
1800.000000 90.300 44.7826
1825.000000 90.452 42.7632
1850.000000 90.601 40.6627
1875.000000 90.746 38.4776
1900.000000 90.886 36.2033
1925.000000 91.019 33.8397
1950.000000 91.144 31.3859
1975.000000 91.258 28.8449
2000.000000 91.361 26.2233
2030.000000 91.466 22.9787
2060.000000 91.548 19.6422
2090.000000 91.606 16.2256
2120.000000 91.638 12.7550
2140.000000 91.645 10.4279
2180.000000 91.626 5.7717
2200.000000 91.600 3.4556
2240.000000 91.515 -1.1235
2270.000000 91.426 -4.4839
2300.000000 91.319 -7.7587
2330.000000 91.196 -10.9357
2360.000000 91.061 -14.0024
2400.000000 90.869 -17.9049
2430.000000 90.720 -20.6908
2470.000000 90.521 -24.2276
2500.000000 90.374 -26.7515
2540.000000 90.187 -29.9584
2580.000000 90.014 -33.0017
2620.000000 89.861 -35.8972
2650.000000 89.761 -37.9872
2690.000000 89.648 -40.6892
2720.000000 89.582 -42.6656
2760.000000 89.518 -45.2504
2800.000000 89.485 -47.7966
2850.000000 89.488 -50.9627
2900.000000 89.541 -54.1606
2950.000000 89.643 -57.4467
3000.000000 89.792 -60.8790
3040.000000 89.942 -63.7637
3070.000000 90.068 -66.0228
3110.000000 90.253 -69.1799
3150.000000 90.452 -72.5232
3200.000000 90.708 -76.9915
3250.000000 90.956 -81.7874
3300.000000 91.180 -86.8781
3350.000000 91.360 -92.1956
3400.000000 91.485 -97.6229
3450.000000 91.547 -103.0143
3500.000000 91.548 -108.2278
3550.000000 91.499 -113.1394
3600.000000 91.415 -117.6627
3650.000000 91.312 -121.7629
3700.000000 91.208 -125.4530
3750.000000 91.114 -128.7759
3820.000000 91.017 -132.9183
3870.000000 90.978 -135.5991
3950.000000 90.967 -139.5687
4000.000000 90.990 -141.9232
4060.000000 91.046 -144.6790
4120.000000 91.125 -147.4229
4180.000000 91.221 -150.2177
4250.000000 91.340 -153.5983
4310.000000 91.434 -156.6235
4370.000000 91.506 -159.7675
4440.000000 91.549 -163.5371
4500.000000 91.541 -166.7912
4550.000000 91.499 -169.4683
4620.000000 91.384 -173.0695
4680.000000 91.239 -175.9408
4750.000000 91.022 -178.9647
4820.000000 90.767 178.4109
4870.000000 90.569 176.7917
4940.000000 90.281 174.8736
5000.000000 90.029 173.5332
5080.000000 89.696 172.1414
5150.000000 89.408 171.2526
5220.000000 89.126 170.6533
5300.000000 88.814 170.3196
5380.000000 88.518 170.3422
5450.000000 88.280 170.6311
5520.000000 88.064 171.1432
5600.000000 87.847 171.9683
5700.000000 87.624 173.3019
5800.000000 87.460 174.9017
5900.000000 87.357 176.6829
6000.000000 87.316 178.5731
6080.000000 87.328 -179.8846
6150.000000 87.371 -178.5375
6220.000000 87.445 -177.2169
6300.000000 87.565 -175.7758
6400.000000 87.770 -174.1312
6500.000000 88.034 -172.7557
6600.000000 88.349 -171.7512
6700.000000 88.707 -171.2242
6800.000000 89.091 -171.2960
6900.000000 89.475 -172.0772
7000.000000 89.828 -173.6357
7100.000000 90.109 -175.9524
7200.000000 90.280 -178.9059
7300.000000 90.308 177.7443
7400.000000 90.174 174.3516
7500.000000 89.886 171.3082
7620.000000 89.382 168.5501
7750.000000 88.723 166.9169
7880.000000 88.030 166.6902
8000.000000 87.425 167.5598
8120.000000 86.892 169.2369
8250.000000 86.421 171.6797
8380.000000 86.071 174.4723
8500.000000 85.853 177.1188
8620.000000 85.723 179.6398
8750.000000 85.663 -177.9112
8850.000000 85.662 -176.2850
9000.000000 85.711 -174.3785
9120.000000 85.772 -173.4015
9250.000000 85.825 -172.9313
9380.000000 85.825 -173.0120
9500.000000 85.750 -173.4139
9620.000000 85.587 -173.9098
9750.000000 85.315 -174.2833
9880.000000 84.960 -174.2205
10000.000000 84.584 -173.6111
10150.000000 84.095 -171.9973
10300.000000 83.632 -169.4403
10440.000000 83.272 -166.2891
10600.000000 83.004 -161.9791
10750.000000 82.944 -157.5955
10900.000000 83.095 -153.3799
11060.000000 83.460 -149.6940
11200.000000 83.885 -147.4893
11380.000000 84.490 -146.0472
11500.000000 84.911 -145.8672
11720.000000 85.703 -147.2974
11800.000000 85.980 -148.4832
12060.000000 86.679 -154.8984
12200.000000 86.850 -159.6835
12410.000000 86.756 -167.8720
12500.000000 86.569 -171.4828
12650.000000 86.053 -177.0833
12800.000000 85.308 178.4772
13150.000000 83.139 174.7740
13200.000000 82.835 175.0112
13400.000000 81.783 177.4993
13600.000000 81.127 -178.3716
13800.000000 80.988 -174.0417
14000.000000 81.329 -171.1432
14300.000000 82.292 -171.9845
14500.000000 82.896 -176.2090
14750.000000 83.373 175.6718
15000.000000 83.530 165.9719
15250.000000 83.465 155.5020
15500.000000 83.253 144.1126
15750.000000 82.863 131.3081
16000.000000 82.177 117.0338
16250.000000 81.073 102.2621
16500.000000 79.513 88.7306
16750.000000 77.612 78.0258
17000.000000 75.614 70.8140
17250.000000 73.844 66.5561
17500.000000 72.601 63.6509
17750.000000 71.982 60.6058
18000.000000 72.289 57.8864
18250.000000 74.393 53.1901
18500.000000 76.906 34.5886
18750.000000 78.356 1.7788
19000.000000 79.121 -37.7141
19250.000000 79.159 -83.3048
19500.000000 78.471 -133.0347
19750.000000 77.309 178.2185
