* Measurement data measured by REW V5.20.9
* Source: USB-C to 3.5mm Headphone Jack Adapter, USB-C to 3.5mm Headphone Jack Adapter, 0, volume: 0.138
* Format: 256k Log Swept Sine, 1 sweep at -12.0 dBFS with no timing reference
* Dated: 11/06/2023 12:43:57 PM
* REW Settings:
*  C-weighting compensation: Off
*  Target level: 75.0 dB
* Note: ; 
* Measurement: P8 L
* Smoothing: 1/24 octave
* Frequency Step: 1/48 octave
* Start Frequency: 1.000 Hz
*
* Freq(Hz) SPL(dB) Phase(degrees)
1.000000 62.021 68.4759
1.015000 62.155 66.6646
1.030000 62.298 64.9221
1.044000 62.438 63.3469
1.060000 62.607 61.6037
1.075000 62.772 60.0219
1.090000 62.944 58.4876
1.106000 63.134 56.9003
1.120000 63.304 55.5503
1.138000 63.529 53.8638
1.150000 63.682 52.7680
1.172000 63.967 50.8127
1.180000 64.072 50.1173
1.206000 64.417 47.9082
1.220000 64.604 46.7469
1.241000 64.884 45.0354
1.250000 65.003 44.3113
1.265000 65.202 43.1148
1.280000 65.398 41.9286
1.315000 65.847 39.1842
1.320000 65.909 38.7932
1.340000 66.154 37.2275
1.360000 66.392 35.6644
1.380000 66.631 34.1299
1.400000 66.870 32.6254
1.430000 67.228 30.4244
1.450000 67.466 28.9940
1.475000 67.763 27.2471
1.500000 68.058 25.5457
1.525000 68.351 23.8892
1.550000 68.641 22.2772
1.575000 68.928 20.7094
1.600000 69.211 19.1854
1.625000 69.491 17.7047
1.650000 69.765 16.2669
1.675000 70.035 14.8717
1.700000 70.299 13.5264
1.725000 70.559 12.2497
1.750000 70.816 11.0360
1.775000 71.069 9.8783
1.800000 71.318 8.7699
1.825000 71.564 7.7037
1.850000 71.806 6.6729
1.875000 72.045 5.6707
1.900000 72.280 4.6900
1.925000 72.512 3.7239
1.950000 72.742 2.7657
1.975000 72.968 1.8083
2.000000 73.191 0.8449
2.030000 73.455 -0.3252
2.060000 73.714 -1.4812
2.090000 73.967 -2.6151
2.120000 74.216 -3.7285
2.140000 74.379 -4.4601
2.180000 74.699 -5.8996
2.200000 74.856 -6.6085
2.240000 75.165 -8.0064
2.270000 75.393 -9.0393
2.300000 75.617 -10.0606
2.330000 75.839 -11.0717
2.360000 76.057 -12.0740
2.400000 76.342 -13.3898
2.430000 76.551 -14.3593
2.470000 76.824 -15.6302
2.500000 77.025 -16.5683
2.540000 77.287 -17.8004
2.580000 77.543 -19.0129
2.620000 77.795 -20.2077
2.650000 77.980 -21.0934
2.690000 78.224 -22.2619
2.720000 78.403 -23.1254
2.760000 78.637 -24.2530
2.800000 78.866 -25.3575
2.850000 79.145 -26.7133
2.900000 79.417 -28.0500
2.950000 79.682 -29.3771
3.000000 79.940 -30.7038
3.040000 80.143 -31.7709
3.070000 80.292 -32.5733
3.110000 80.486 -33.6428
3.150000 80.677 -34.7097
3.200000 80.909 -36.0363
3.250000 81.135 -37.3508
3.300000 81.355 -38.6489
3.350000 81.569 -39.9260
3.400000 81.778 -41.1777
3.450000 81.981 -42.4048
3.500000 82.178 -43.6123
3.550000 82.369 -44.8056
3.600000 82.555 -45.9900
3.650000 82.735 -47.1707
3.700000 82.911 -48.3531
3.750000 83.081 -49.5399
3.820000 83.310 -51.2017
3.870000 83.467 -52.3828
3.950000 83.707 -54.2506
4.000000 83.851 -55.3974
4.060000 84.018 -56.7465
4.120000 84.178 -58.0715
4.180000 84.330 -59.3752
4.250000 84.498 -60.8703
4.310000 84.636 -62.1304
4.370000 84.768 -63.3715
4.440000 84.913 -64.8001
4.500000 85.031 -66.0080
4.550000 85.124 -66.9990
4.620000 85.248 -68.3563
4.680000 85.349 -69.4863
4.750000 85.462 -70.7612
4.820000 85.566 -71.9970
4.870000 85.637 -72.8556
4.940000 85.731 -74.0218
5.000000 85.808 -74.9867
5.080000 85.907 -76.2210
5.150000 85.988 -77.2523
5.220000 86.065 -78.2399
5.300000 86.150 -79.3170
5.380000 86.234 -80.3412
5.450000 86.307 -81.1901
5.520000 86.378 -81.9930
5.600000 86.459 -82.8640
5.700000 86.562 -83.8991
5.800000 86.670 -84.8751
5.900000 86.780 -85.7812
6.000000 86.894 -86.6527
6.080000 86.989 -87.3475
6.150000 87.076 -87.9416
6.220000 87.165 -88.5240
6.300000 87.269 -89.1881
6.400000 87.401 -90.0375
6.500000 87.537 -90.9050
6.600000 87.676 -91.7859
6.700000 87.813 -92.6936
6.800000 87.948 -93.6389
6.900000 88.082 -94.6170
7.000000 88.213 -95.6193
7.100000 88.336 -96.6393
7.200000 88.454 -97.6870
7.300000 88.565 -98.7500
7.400000 88.670 -99.8089
7.500000 88.765 -100.8657
7.620000 88.871 -102.1329
7.750000 88.974 -103.4655
7.880000 89.065 -104.7518
8.000000 89.141 -105.8962
8.120000 89.212 -106.9800
8.250000 89.282 -108.0869
8.380000 89.349 -109.1311
8.500000 89.412 -110.0383
8.620000 89.473 -110.8902
8.750000 89.543 -111.7767
8.850000 89.599 -112.4342
9.000000 89.686 -113.3837
9.120000 89.758 -114.1413
9.250000 89.840 -114.9573
9.380000 89.922 -115.7758
9.500000 89.997 -116.5465
9.620000 90.072 -117.3281
9.750000 90.150 -118.1813
9.880000 90.222 -119.0443
10.000000 90.286 -119.8448
10.150000 90.359 -120.8272
10.300000 90.424 -121.7944
10.440000 90.479 -122.6629
10.600000 90.536 -123.6059
10.750000 90.586 -124.4423
10.900000 90.636 -125.2229
11.060000 90.688 -126.0043
11.200000 90.738 -126.6556
11.380000 90.805 -127.4510
11.500000 90.854 -127.9792
11.720000 90.949 -128.9396
11.800000 90.985 -129.3000
12.060000 91.104 -130.5126
12.200000 91.165 -131.2004
12.410000 91.253 -132.2751
12.500000 91.287 -132.7439
12.650000 91.338 -133.5413
12.800000 91.383 -134.3341
13.150000 91.460 -136.1275
13.200000 91.468 -136.3701
13.400000 91.496 -137.3032
13.600000 91.520 -138.1580
13.800000 91.541 -138.9403
14.000000 91.566 -139.6534
14.300000 91.613 -140.6437
14.500000 91.652 -141.2801
14.750000 91.709 -142.0839
15.000000 91.771 -142.9326
15.250000 91.834 -143.8362
15.500000 91.892 -144.7947
15.750000 91.941 -145.7949
16.000000 91.979 -146.8058
16.250000 92.005 -147.8016
16.500000 92.021 -148.7593
16.750000 92.029 -149.6583
17.000000 92.035 -150.4923
17.250000 92.040 -151.2669
17.500000 92.047 -151.9914
17.750000 92.058 -152.6837
18.000000 92.073 -153.3616
18.250000 92.090 -154.0344
18.500000 92.109 -154.7084
18.750000 92.127 -155.3837
19.000000 92.145 -156.0546
19.250000 92.162 -156.7174
19.500000 92.178 -157.3689
19.750000 92.195 -158.0098
20.000000 92.213 -158.6452
20.299999 92.235 -159.4067
20.600000 92.256 -160.1733
20.900000 92.276 -160.9449
21.200001 92.292 -161.7137
21.400000 92.300 -162.2184
21.799999 92.313 -163.1946
22.000000 92.318 -163.6631
22.400000 92.329 -164.5642
22.700001 92.339 -165.2189
23.000000 92.350 -165.8662
23.299999 92.361 -166.5133
23.600000 92.371 -167.1625
24.000000 92.382 -168.0269
24.299999 92.386 -168.6666
24.700001 92.388 -169.4978
25.000000 92.388 -170.1000
25.400000 92.385 -170.8737
25.799999 92.383 -171.6181
26.200001 92.380 -172.3411
26.500000 92.379 -172.8743
26.900000 92.378 -173.5783
27.200001 92.377 -174.1036
27.600000 92.375 -174.8025
28.000000 92.372 -175.5004
28.500000 92.366 -176.3673
29.000000 92.356 -177.2146
29.500000 92.343 -178.0250
30.000000 92.330 -178.7887
30.400000 92.321 -179.3675
30.700001 92.317 -179.7856
31.100000 92.314 179.6736
31.500000 92.316 179.1410
32.000000 92.324 178.4535
32.500000 92.335 177.6985
33.000000 92.334 176.8752
33.500000 92.311 176.0652
34.000000 92.272 175.3918
34.500000 92.238 174.8994
35.000000 92.227 174.4865
35.500000 92.238 173.9927
36.000000 92.249 173.3456
36.500000 92.243 172.6126
37.000000 92.219 171.9153
37.500000 92.190 171.3071
38.200001 92.162 170.5123
38.700001 92.146 169.9096
39.500000 92.109 168.9283
40.000000 92.082 168.3741
40.599998 92.059 167.7607
41.200001 92.046 167.1233
41.799999 92.032 166.4267
42.500000 92.004 165.6082
43.099998 91.975 164.9560
43.700001 91.947 164.3356
44.400002 91.915 163.6311
45.000000 91.890 163.0351
45.500000 91.871 162.5094
46.200001 91.836 161.7177
46.799999 91.793 161.0945
47.500000 91.757 160.4877
48.200001 91.749 159.7290
48.700001 91.729 158.9981
49.400002 91.642 158.0673
50.000000 91.553 157.6956
50.799999 91.517 157.5274
51.500000 91.544 157.0742
52.200001 91.548 156.3438
53.000000 91.521 155.5920
53.799999 91.499 154.9315
54.500000 91.478 154.3163
55.200001 91.448 153.7179
56.000000 91.410 153.0870
57.000000 91.365 152.2971
58.000000 91.311 151.4886
59.000000 91.248 150.7256
60.000000 91.186 150.0262
60.799999 91.138 149.4831
61.500000 91.098 149.0072
62.200001 91.056 148.5320
63.000000 91.008 147.9985
64.000000 90.951 147.3321
65.000000 90.893 146.6371
66.000000 90.831 145.9397
67.000000 90.764 145.3025
68.000000 90.705 144.7812
69.000000 90.665 144.2949
70.000000 90.627 143.8104
71.000000 90.598 143.3867
72.000000 90.579 142.8777
73.000000 90.539 142.2625
74.000000 90.480 141.7401
75.000000 90.430 141.2194
76.199997 90.360 140.4274
77.500000 90.260 139.6281
78.800003 90.168 138.9407
80.000000 90.094 138.3877
81.199997 90.033 137.9100
82.500000 89.981 137.3912
83.800003 89.909 136.7573
85.000000 89.809 136.3566
86.199997 89.721 136.0939
87.500000 89.621 135.8544
88.500000 89.556 135.8331
90.000000 89.494 135.7091
91.199997 89.422 135.7255
92.500000 89.377 136.1987
93.800003 89.412 136.8324
95.000000 89.518 137.3116
96.199997 89.672 137.3657
97.500000 89.831 136.9087
98.800003 89.973 136.0157
100.000000 90.052 134.6774
101.500000 90.023 132.9025
103.000000 89.947 131.5137
104.400002 89.882 130.3448
106.000000 89.811 129.1292
107.500000 89.750 128.1111
109.000000 89.689 127.2061
110.599998 89.617 126.3306
112.000000 89.549 125.6239
113.800003 89.464 124.7493
115.000000 89.411 124.1723
117.199997 89.322 123.1839
118.000000 89.292 122.8422
120.599998 89.186 121.7792
122.000000 89.124 121.2387
124.099998 89.037 120.4481
125.000000 89.003 120.1108
126.500000 88.949 119.5629
128.000000 88.898 119.0280
131.500000 88.772 117.8214
132.000000 88.755 117.6526
134.000000 88.687 116.9815
136.000000 88.619 116.3531
138.000000 88.548 115.7513
140.000000 88.477 115.1319
143.000000 88.390 114.1967
145.000000 88.335 113.7036
147.500000 88.240 113.3401
150.000000 88.163 113.0160
152.500000 88.109 111.9667
155.000000 88.035 110.8550
157.500000 87.972 110.0984
160.000000 87.906 109.5051
162.500000 87.837 108.8785
165.000000 87.777 108.2159
167.500000 87.717 107.5801
170.000000 87.652 106.9876
172.500000 87.589 106.3771
175.000000 87.529 105.7448
177.500000 87.469 105.1439
180.000000 87.409 104.5649
182.500000 87.347 104.0010
185.000000 87.287 103.4498
187.500000 87.227 102.8986
190.000000 87.167 102.3620
192.500000 87.111 101.8494
195.000000 87.054 101.3585
197.500000 86.994 100.8797
200.000000 86.936 100.4171
203.000000 86.876 99.8704
206.000000 86.818 99.3234
209.000000 86.752 98.8190
212.000000 86.686 98.3486
214.000000 86.644 98.0443
218.000000 86.560 97.4575
220.000000 86.516 97.1961
224.000000 86.438 96.8135
227.000000 86.398 96.6218
230.000000 86.378 96.4465
233.000000 86.376 96.2181
236.000000 86.383 95.8651
240.000000 86.397 95.1912
243.000000 86.398 94.5713
247.000000 86.376 93.5626
250.000000 86.347 92.8166
254.000000 86.311 92.1151
258.000000 86.266 91.4744
262.000000 86.212 90.7910
265.000000 86.171 90.2988
269.000000 86.115 89.6777
272.000000 86.076 89.2418
276.000000 86.025 88.6934
280.000000 85.975 88.1593
285.000000 85.916 87.5294
290.000000 85.861 86.9439
295.000000 85.807 86.3801
300.000000 85.756 85.8386
304.000000 85.716 85.4221
307.000000 85.687 85.1231
311.000000 85.649 84.7468
315.000000 85.615 84.3961
320.000000 85.578 83.9789
325.000000 85.548 83.5651
330.000000 85.522 83.1435
335.000000 85.495 82.7194
340.000000 85.472 82.3029
345.000000 85.457 81.8911
350.000000 85.444 81.4920
355.000000 85.407 81.1277
360.000000 85.372 80.7897
365.000000 85.348 80.4656
370.000000 85.327 80.1442
375.000000 85.309 79.8329
382.000000 85.291 79.4333
387.000000 85.278 79.1538
395.000000 85.260 78.7242
400.000000 85.252 78.4715
406.000000 85.244 78.1900
412.000000 85.239 77.9182
418.000000 85.237 77.6411
425.000000 85.237 77.3451
431.000000 85.239 77.1112
437.000000 85.241 76.8851
444.000000 85.236 76.6384
450.000000 85.232 76.4302
455.000000 85.250 76.2426
462.000000 85.282 75.9851
468.000000 85.301 75.7874
475.000000 85.321 75.5611
482.000000 85.343 75.3350
487.000000 85.360 75.1830
494.000000 85.385 74.9779
500.000000 85.409 74.7995
508.000000 85.444 74.5590
515.000000 85.475 74.3496
522.000000 85.507 74.1428
530.000000 85.546 73.9141
538.000000 85.586 73.6923
545.000000 85.617 73.5072
552.000000 85.655 73.3138
560.000000 85.711 73.0656
570.000000 85.776 72.7637
580.000000 85.839 72.4582
590.000000 85.904 72.1478
600.000000 85.970 71.8382
608.000000 86.023 71.5871
615.000000 86.071 71.3652
622.000000 86.119 71.1339
630.000000 86.172 70.8572
640.000000 86.235 70.5100
650.000000 86.295 70.1646
660.000000 86.371 69.7746
670.000000 86.446 69.3664
680.000000 86.513 68.9606
690.000000 86.577 68.5532
700.000000 86.640 68.1332
710.000000 86.698 67.7014
720.000000 86.753 67.2629
730.000000 86.806 66.8139
740.000000 86.852 66.3441
750.000000 86.893 65.8785
762.000000 86.948 65.3888
775.000000 87.003 64.8598
788.000000 87.048 64.3346
800.000000 87.083 63.8763
812.000000 87.116 63.4469
825.000000 87.148 63.0166
838.000000 87.179 62.6051
850.000000 87.208 62.2523
862.000000 87.233 61.9611
875.000000 87.261 61.6862
885.000000 87.283 61.4897
900.000000 87.320 61.2268
912.000000 87.351 61.0431
925.000000 87.388 60.8677
938.000000 87.428 60.7194
950.000000 87.468 60.5893
962.000000 87.511 60.4361
975.000000 87.561 60.2676
988.000000 87.613 60.1069
1000.000000 87.663 59.9578
1015.000000 87.728 59.7668
1030.000000 87.795 59.5590
1044.000000 87.862 59.3431
1060.000000 87.935 59.1042
1075.000000 88.001 58.8742
1090.000000 88.068 58.6205
1106.000000 88.139 58.3341
1120.000000 88.200 58.0726
1138.000000 88.275 57.7351
1150.000000 88.324 57.5069
1172.000000 88.414 57.0468
1180.000000 88.445 56.8788
1206.000000 88.544 56.3445
1220.000000 88.595 56.0601
1241.000000 88.669 55.6369
1250.000000 88.699 55.4597
1265.000000 88.747 55.1767
1280.000000 88.793 54.9003
1315.000000 88.901 54.2697
1320.000000 88.916 54.1833
1340.000000 88.975 53.8483
1360.000000 89.035 53.5202
1380.000000 89.094 53.1958
1400.000000 89.153 52.8871
1430.000000 89.242 52.4703
1450.000000 89.303 52.2108
1475.000000 89.382 51.8831
1500.000000 89.463 51.5668
1525.000000 89.549 51.2667
1550.000000 89.642 50.9716
1575.000000 89.739 50.6465
1600.000000 89.842 50.3035
1625.000000 89.951 49.9411
1650.000000 90.063 49.5443
1675.000000 90.180 49.0991
1700.000000 90.299 48.6137
1725.000000 90.422 48.0787
1750.000000 90.546 47.4866
1775.000000 90.673 46.8398
1800.000000 90.800 46.1254
1825.000000 90.927 45.3397
1850.000000 91.052 44.4833
1875.000000 91.175 43.5658
1900.000000 91.294 42.5752
1925.000000 91.409 41.5103
1950.000000 91.517 40.3751
1975.000000 91.618 39.1708
2000.000000 91.709 37.9010
2030.000000 91.806 36.3040
2060.000000 91.888 34.6298
2090.000000 91.952 32.8836
2120.000000 91.997 31.0970
2140.000000 92.016 29.8925
2180.000000 92.030 27.4585
2200.000000 92.023 26.2400
2240.000000 91.986 23.8358
2270.000000 91.936 22.0759
2300.000000 91.871 20.3718
2330.000000 91.791 18.7395
2360.000000 91.699 17.1862
2400.000000 91.560 15.2476
2430.000000 91.447 13.9116
2470.000000 91.292 12.2993
2500.000000 91.178 11.2177
2540.000000 91.033 9.9191
2580.000000 90.904 8.7300
2620.000000 90.793 7.5969
2650.000000 90.716 6.7615
2690.000000 90.619 5.6625
2720.000000 90.550 4.8677
2760.000000 90.467 3.8579
2800.000000 90.396 2.9005
2850.000000 90.327 1.7520
2900.000000 90.282 0.6216
2950.000000 90.262 -0.5159
3000.000000 90.269 -1.6852
3040.000000 90.293 -2.6633
3070.000000 90.322 -3.4324
3110.000000 90.375 -4.5133
3150.000000 90.442 -5.6671
3200.000000 90.542 -7.2380
3250.000000 90.660 -8.9740
3300.000000 90.792 -10.8878
3350.000000 90.932 -13.0038
3400.000000 91.072 -15.3289
3450.000000 91.206 -17.8575
3500.000000 91.326 -20.5806
3550.000000 91.426 -23.4696
3600.000000 91.500 -26.4863
3650.000000 91.543 -29.5782
3700.000000 91.552 -32.6739
3750.000000 91.529 -35.7078
3820.000000 91.451 -39.7468
3870.000000 91.369 -42.4274
3950.000000 91.214 -46.3032
4000.000000 91.109 -48.4654
4060.000000 90.982 -50.8047
4120.000000 90.861 -52.8729
4180.000000 90.753 -54.6957
4250.000000 90.649 -56.5815
4310.000000 90.581 -58.0636
4370.000000 90.527 -59.4639
4440.000000 90.474 -61.0309
4500.000000 90.430 -62.3204
4550.000000 90.389 -63.3431
4620.000000 90.324 -64.6694
4680.000000 90.262 -65.6723
4750.000000 90.182 -66.6569
4820.000000 90.099 -67.4344
4870.000000 90.042 -67.8618
4940.000000 89.966 -68.2853
5000.000000 89.907 -68.4923
5080.000000 89.840 -68.5620
5150.000000 89.796 -68.4486
5220.000000 89.767 -68.1882
5300.000000 89.756 -67.7402
5380.000000 89.769 -67.1808
5450.000000 89.800 -66.6306
5520.000000 89.848 -66.0420
5600.000000 89.922 -65.3494
5700.000000 90.041 -64.4912
5800.000000 90.189 -63.6826
5900.000000 90.364 -62.9996
6000.000000 90.559 -62.5243
6080.000000 90.721 -62.3522
6150.000000 90.860 -62.3795
6220.000000 90.989 -62.5809
6300.000000 91.114 -63.0233
6400.000000 91.217 -63.8577
6500.000000 91.246 -64.9014
6600.000000 91.186 -65.9982
6700.000000 91.034 -66.9614
6800.000000 90.798 -67.5961
6900.000000 90.496 -67.7494
7000.000000 90.153 -67.3306
7100.000000 89.796 -66.3273
7200.000000 89.450 -64.7844
7300.000000 89.130 -62.7605
7400.000000 88.853 -60.3232
7500.000000 88.635 -57.5729
7620.000000 88.462 -54.0505
7750.000000 88.388 -50.1508
7880.000000 88.444 -46.4185
8000.000000 88.607 -43.4337
8120.000000 88.857 -41.2169
8250.000000 89.173 -40.0470
8380.000000 89.444 -40.4030
8500.000000 89.558 -42.0450
8620.000000 89.460 -44.5620
8750.000000 89.060 -47.5198
8850.000000 88.545 -49.3843
9000.000000 87.494 -50.6787
9120.000000 86.490 -50.0280
9250.000000 85.330 -47.5092
9380.000000 84.179 -43.1599
9500.000000 83.190 -37.6541
9620.000000 82.334 -30.9285
9750.000000 81.623 -22.6641
9880.000000 81.181 -13.9960
10000.000000 80.999 -6.2277
10150.000000 80.984 2.5962
10300.000000 81.086 10.3268
10440.000000 81.215 16.8089
10600.000000 81.382 23.7030
10750.000000 81.569 29.8497
10900.000000 81.799 35.7233
11060.000000 82.107 41.5998
11200.000000 82.427 46.2920
11380.000000 82.882 51.5537
11500.000000 83.190 54.5661
11720.000000 83.727 59.2420
11800.000000 83.912 60.7401
12060.000000 84.504 65.0829
12200.000000 84.831 66.9840
12410.000000 85.290 69.0167
12500.000000 85.458 69.6581
12650.000000 85.704 70.6326
12800.000000 85.936 71.6305
13150.000000 86.626 73.6108
13200.000000 86.752 73.7260
13400.000000 87.301 73.3370
13600.000000 87.842 71.2522
13800.000000 88.261 67.4933
14000.000000 88.484 62.5436
14300.000000 88.448 54.1758
14500.000000 88.225 48.4516
14750.000000 87.776 41.2956
15000.000000 87.186 34.2820
15250.000000 86.537 27.2540
15500.000000 85.868 19.3356
15750.000000 85.045 9.8082
16000.000000 83.866 -0.5184
16250.000000 82.284 -9.8475
16500.000000 80.450 -17.0527
16750.000000 78.578 -22.2397
17000.000000 76.824 -26.1730
17250.000000 75.251 -29.6121
17500.000000 73.849 -32.9839
17750.000000 72.584 -35.9916
18000.000000 71.640 -37.3779
18250.000000 71.788 -38.7226
18500.000000 72.926 -46.6247
18750.000000 74.691 -60.8924
19000.000000 77.048 -85.5999
19250.000000 78.499 -128.4297
19500.000000 78.381 176.8046
19750.000000 76.912 123.2717
