* Measurement data measured by REW V5.20.9
* Source: USB-C to 3.5mm Headphone Jack Adapter, USB-C to 3.5mm Headphone Jack Adapter, 0, volume: 0.138
* Format: 256k Log Swept Sine, 1 sweep at -12.0 dBFS with no timing reference
* Dated: 11/06/2023 12:42:25 PM
* REW Settings:
*  C-weighting compensation: Off
*  Target level: 75.0 dB
* Note: ; 
* Measurement: P8 R
* Smoothing: 1/24 octave
* Frequency Step: 1/48 octave
* Start Frequency: 1.000 Hz
*
* Freq(Hz) SPL(dB) Phase(degrees)
1.000000 64.647 66.1075
1.015000 64.805 64.3918
1.030000 64.967 62.7536
1.044000 65.125 61.2844
1.060000 65.310 59.6716
1.075000 65.488 58.2195
1.090000 65.671 56.8212
1.106000 65.871 55.3845
1.120000 66.049 54.1698
1.138000 66.281 52.6608
1.150000 66.437 51.6846
1.172000 66.728 49.9486
1.180000 66.834 49.3327
1.206000 67.181 47.3769
1.220000 67.368 46.3476
1.241000 67.648 44.8258
1.250000 67.768 44.1794
1.265000 67.966 43.1063
1.280000 68.163 42.0352
1.315000 68.611 39.5204
1.320000 68.674 39.1572
1.340000 68.921 37.6880
1.360000 69.162 36.1986
1.380000 69.403 34.7202
1.400000 69.643 33.2559
1.430000 70.001 31.0885
1.450000 70.239 29.6646
1.475000 70.534 27.9104
1.500000 70.827 26.1868
1.525000 71.117 24.4962
1.550000 71.404 22.8407
1.575000 71.688 21.2225
1.600000 71.968 19.6441
1.625000 72.243 18.1075
1.650000 72.514 16.6150
1.675000 72.780 15.1690
1.700000 73.041 13.7757
1.725000 73.298 12.4450
1.750000 73.550 11.1712
1.775000 73.799 9.9480
1.800000 74.044 8.7690
1.825000 74.285 7.6277
1.850000 74.523 6.5178
1.875000 74.757 5.4330
1.900000 74.987 4.3667
1.925000 75.214 3.3126
1.950000 75.438 2.2643
1.975000 75.658 1.2155
2.000000 75.875 0.1596
2.030000 76.131 -1.1225
2.060000 76.382 -2.3957
2.090000 76.628 -3.6525
2.120000 76.868 -4.8935
2.140000 77.025 -5.7123
2.180000 77.333 -7.3301
2.200000 77.484 -8.1293
2.240000 77.780 -9.7094
2.270000 77.997 -10.8790
2.300000 78.211 -12.0358
2.330000 78.421 -13.1804
2.360000 78.627 -14.3133
2.400000 78.896 -15.8042
2.430000 79.092 -16.9068
2.470000 79.347 -18.3564
2.500000 79.533 -19.4283
2.540000 79.776 -20.8369
2.580000 80.012 -22.2222
2.620000 80.243 -23.5842
2.650000 80.412 -24.5904
2.690000 80.634 -25.9118
2.720000 80.797 -26.8847
2.760000 81.008 -28.1536
2.800000 81.213 -29.3942
2.850000 81.460 -30.9122
2.900000 81.700 -32.4019
2.950000 81.932 -33.8722
3.000000 82.158 -35.3318
3.040000 82.334 -36.4976
3.070000 82.463 -37.3709
3.110000 82.630 -38.5307
3.150000 82.793 -39.6824
3.200000 82.989 -41.1056
3.250000 83.180 -42.5045
3.300000 83.365 -43.8727
3.350000 83.545 -45.2037
3.400000 83.721 -46.4918
3.450000 83.890 -47.7381
3.500000 84.053 -48.9498
3.550000 84.211 -50.1337
3.600000 84.364 -51.2968
3.650000 84.514 -52.4463
3.700000 84.660 -53.5889
3.750000 84.803 -54.7257
3.820000 84.994 -56.2967
3.870000 85.126 -57.4005
3.950000 85.330 -59.1271
4.000000 85.454 -60.1773
4.060000 85.600 -61.4035
4.120000 85.741 -62.5894
4.180000 85.878 -63.7409
4.250000 86.033 -65.0505
4.310000 86.162 -66.1523
4.370000 86.289 -67.2425
4.440000 86.434 -68.4990
4.500000 86.554 -69.5565
4.550000 86.653 -70.4247
4.620000 86.787 -71.6209
4.680000 86.900 -72.6293
4.750000 87.030 -73.7855
4.820000 87.156 -74.9159
4.870000 87.244 -75.7097
4.940000 87.366 -76.8058
5.000000 87.467 -77.7345
5.080000 87.600 -78.9617
5.150000 87.714 -80.0204
5.220000 87.825 -81.0652
5.300000 87.948 -82.2449
5.380000 88.068 -83.4123
5.450000 88.171 -84.4244
5.520000 88.270 -85.4264
5.600000 88.381 -86.5589
5.700000 88.514 -87.9549
5.800000 88.641 -89.3293
5.900000 88.763 -90.6824
6.000000 88.880 -92.0130
6.080000 88.969 -93.0609
6.150000 89.044 -93.9675
6.220000 89.116 -94.8636
6.300000 89.196 -95.8718
6.400000 89.291 -97.1036
6.500000 89.381 -98.3040
6.600000 89.466 -99.4744
6.700000 89.548 -100.6129
6.800000 89.626 -101.7182
6.900000 89.700 -102.7913
7.000000 89.772 -103.8319
7.100000 89.842 -104.8395
7.200000 89.910 -105.8118
7.300000 89.976 -106.7528
7.400000 90.042 -107.6680
7.500000 90.107 -108.5561
7.620000 90.185 -109.5864
7.750000 90.269 -110.6737
7.880000 90.353 -111.7309
8.000000 90.431 -112.6836
8.120000 90.509 -113.6259
8.250000 90.593 -114.6318
8.380000 90.676 -115.6266
8.500000 90.750 -116.5405
8.620000 90.823 -117.4482
8.750000 90.900 -118.4222
8.850000 90.956 -119.1657
9.000000 91.037 -120.2697
9.120000 91.098 -121.1366
9.250000 91.161 -122.0608
9.380000 91.220 -122.9657
9.500000 91.272 -123.7794
9.620000 91.322 -124.5737
9.750000 91.374 -125.4135
9.880000 91.425 -126.2302
10.000000 91.470 -126.9655
10.150000 91.526 -127.8680
10.300000 91.581 -128.7498
10.440000 91.631 -129.5638
10.600000 91.687 -130.4875
10.750000 91.737 -131.3474
10.900000 91.783 -132.2065
11.060000 91.829 -133.1171
11.200000 91.864 -133.9042
11.380000 91.904 -134.9013
11.500000 91.926 -135.5440
11.720000 91.959 -136.6785
11.800000 91.970 -137.0698
12.060000 91.999 -138.2628
12.200000 92.015 -138.8540
12.410000 92.041 -139.6773
12.500000 92.055 -140.0160
12.650000 92.081 -140.5563
12.800000 92.111 -141.0916
13.150000 92.197 -142.3614
13.200000 92.211 -142.5521
13.400000 92.268 -143.3400
13.600000 92.324 -144.1823
13.800000 92.375 -145.0700
14.000000 92.419 -145.9946
14.300000 92.469 -147.3950
14.500000 92.491 -148.3095
14.750000 92.508 -149.3993
15.000000 92.519 -150.4084
15.250000 92.529 -151.3406
15.500000 92.542 -152.2071
15.750000 92.561 -153.0314
16.000000 92.585 -153.8422
16.250000 92.612 -154.6534
16.500000 92.640 -155.4734
16.750000 92.667 -156.3024
17.000000 92.691 -157.1295
17.250000 92.711 -157.9449
17.500000 92.727 -158.7396
17.750000 92.740 -159.5057
18.000000 92.751 -160.2414
18.250000 92.762 -160.9481
18.500000 92.772 -161.6286
18.750000 92.783 -162.2885
19.000000 92.793 -162.9333
19.250000 92.803 -163.5665
19.500000 92.813 -164.1908
19.750000 92.822 -164.8071
20.000000 92.829 -165.4134
20.299999 92.836 -166.1259
20.600000 92.841 -166.8205
20.900000 92.847 -167.5004
21.200001 92.852 -168.1738
21.400000 92.856 -168.6251
21.799999 92.863 -169.5427
22.000000 92.864 -170.0087
22.400000 92.859 -170.9400
22.700001 92.849 -171.6150
23.000000 92.836 -172.2514
23.299999 92.824 -172.8425
23.600000 92.815 -173.3960
24.000000 92.812 -174.1119
24.299999 92.815 -174.6627
24.700001 92.823 -175.4409
25.000000 92.826 -176.0514
25.400000 92.824 -176.8703
25.799999 92.816 -177.6547
26.200001 92.806 -178.3882
26.500000 92.801 -178.9141
26.900000 92.798 -179.6075
27.200001 92.796 179.8663
27.600000 92.792 179.1563
28.000000 92.783 178.4519
28.500000 92.766 177.6096
29.000000 92.747 176.8211
29.500000 92.730 176.0693
30.000000 92.715 175.3293
30.400000 92.703 174.7364
30.700001 92.693 174.2895
31.100000 92.679 173.6914
31.500000 92.662 173.0952
32.000000 92.638 172.3661
32.500000 92.611 171.6697
33.000000 92.586 171.0056
33.500000 92.564 170.3542
34.000000 92.545 169.6934
34.500000 92.525 169.0209
35.000000 92.502 168.3522
35.500000 92.479 167.6987
36.000000 92.457 167.0571
36.500000 92.435 166.4190
37.000000 92.412 165.7852
37.500000 92.388 165.1662
38.200001 92.354 164.3385
38.700001 92.332 163.7688
39.500000 92.301 162.8602
40.000000 92.281 162.2848
40.599998 92.251 161.5997
41.200001 92.215 160.9454
41.799999 92.176 160.3394
42.500000 92.134 159.6835
43.099998 92.103 159.1174
43.700001 92.073 158.4971
44.400002 92.027 157.7252
45.000000 91.981 157.0992
45.500000 91.946 156.6101
46.200001 91.908 155.8968
46.799999 91.877 155.2477
47.500000 91.847 154.5340
48.200001 91.842 153.7616
48.700001 91.840 153.0319
49.400002 91.784 151.8939
50.000000 91.687 151.2151
50.799999 91.580 150.9560
51.500000 91.561 150.8103
52.200001 91.555 150.3715
53.000000 91.512 149.7647
53.799999 91.454 149.2515
54.500000 91.405 148.7806
55.200001 91.350 148.2644
56.000000 91.283 147.6583
57.000000 91.199 146.8747
58.000000 91.120 146.0997
59.000000 91.047 145.3586
60.000000 90.973 144.6477
60.799999 90.902 144.1456
61.500000 90.830 143.8242
62.200001 90.759 143.5967
63.000000 90.672 143.3780
64.000000 90.543 143.3530
65.000000 90.469 143.6507
66.000000 90.461 143.6032
67.000000 90.434 143.3322
68.000000 90.436 143.2487
69.000000 90.510 142.9554
70.000000 90.594 142.1588
71.000000 90.620 141.1551
72.000000 90.615 140.3806
73.000000 90.622 139.6575
74.000000 90.610 138.8278
75.000000 90.574 138.0254
76.199997 90.505 137.1516
77.500000 90.436 136.4008
78.800003 90.393 135.5138
80.000000 90.344 134.6078
81.199997 90.290 133.6806
82.500000 90.215 132.6995
83.800003 90.113 131.8323
85.000000 90.003 131.2989
86.199997 89.918 130.8557
87.500000 89.828 130.2108
88.500000 89.748 129.6521
90.000000 89.614 128.9893
91.199997 89.542 128.6831
92.500000 89.487 128.2979
93.800003 89.403 128.0214
95.000000 89.311 128.0229
96.199997 89.223 128.0387
97.500000 89.107 127.8492
98.800003 88.940 127.7956
100.000000 88.853 128.4384
101.500000 88.994 128.8771
103.000000 89.188 128.2621
104.400002 89.343 127.4603
106.000000 89.464 126.3545
107.500000 89.495 125.1969
109.000000 89.463 124.0623
110.599998 89.406 122.8736
112.000000 89.350 121.8759
113.800003 89.276 120.7298
115.000000 89.220 120.0756
117.199997 89.107 119.0450
118.000000 89.066 118.6873
120.599998 88.941 117.4839
122.000000 88.881 116.8407
124.099998 88.794 115.9545
125.000000 88.756 115.6180
126.500000 88.696 115.0946
128.000000 88.638 114.5839
131.500000 88.508 113.4158
132.000000 88.489 113.2517
134.000000 88.408 112.6064
136.000000 88.327 111.9460
138.000000 88.252 111.3055
140.000000 88.183 110.7011
143.000000 88.066 109.8470
145.000000 87.986 109.1746
147.500000 87.902 108.0192
150.000000 87.798 106.9458
152.500000 87.722 106.6696
155.000000 87.672 106.3891
157.500000 87.592 105.8657
160.000000 87.510 105.2113
162.500000 87.439 104.5805
165.000000 87.369 103.9909
167.500000 87.295 103.4022
170.000000 87.223 102.8233
172.500000 87.153 102.2697
175.000000 87.084 101.7225
177.500000 87.015 101.1766
180.000000 86.948 100.6433
182.500000 86.883 100.1176
185.000000 86.818 99.6062
187.500000 86.754 99.1123
190.000000 86.690 98.6380
192.500000 86.627 98.1868
195.000000 86.564 97.7728
197.500000 86.499 97.4156
200.000000 86.434 97.0563
203.000000 86.356 96.5378
206.000000 86.281 96.0494
209.000000 86.210 95.6529
212.000000 86.140 95.3558
214.000000 86.098 95.2092
218.000000 86.036 94.9671
220.000000 86.016 94.8394
224.000000 86.001 94.5010
227.000000 86.002 94.1233
230.000000 85.998 93.6343
233.000000 85.983 93.0911
236.000000 85.959 92.5404
240.000000 85.913 91.8161
243.000000 85.873 91.3265
247.000000 85.799 90.8251
250.000000 85.748 90.4675
254.000000 85.715 89.8009
258.000000 85.684 89.1655
262.000000 85.640 88.6413
265.000000 85.606 88.2601
269.000000 85.561 87.7554
272.000000 85.528 87.3824
276.000000 85.483 86.9160
280.000000 85.440 86.4820
285.000000 85.387 85.9667
290.000000 85.338 85.4842
295.000000 85.291 85.0279
300.000000 85.246 84.5930
304.000000 85.212 84.2728
307.000000 85.189 84.0426
311.000000 85.159 83.7484
315.000000 85.133 83.4655
320.000000 85.104 83.1253
325.000000 85.079 82.8059
330.000000 85.056 82.4919
335.000000 85.035 82.1803
340.000000 85.018 81.8669
345.000000 85.011 81.5153
350.000000 85.007 81.1759
355.000000 84.984 80.9539
360.000000 84.964 80.7536
365.000000 84.953 80.5314
370.000000 84.947 80.2999
375.000000 84.943 80.0712
382.000000 84.941 79.7702
387.000000 84.941 79.5620
395.000000 84.946 79.2322
400.000000 84.952 79.0360
406.000000 84.960 78.8119
412.000000 84.971 78.5995
418.000000 84.985 78.3940
425.000000 85.006 78.1668
431.000000 85.027 77.9689
437.000000 85.047 77.7468
444.000000 85.065 77.4366
450.000000 85.080 77.1772
455.000000 85.107 77.0676
462.000000 85.150 76.9420
468.000000 85.182 76.7766
475.000000 85.218 76.5567
482.000000 85.255 76.3466
487.000000 85.283 76.2029
494.000000 85.325 75.9977
500.000000 85.360 75.8158
508.000000 85.410 75.5742
515.000000 85.454 75.3665
522.000000 85.499 75.1561
530.000000 85.553 74.9058
538.000000 85.610 74.6395
545.000000 85.663 74.3848
552.000000 85.716 74.1591
560.000000 85.770 73.9557
570.000000 85.841 73.6530
580.000000 85.916 73.3239
590.000000 85.992 72.9903
600.000000 86.069 72.6461
608.000000 86.130 72.3587
615.000000 86.184 72.1029
622.000000 86.237 71.8415
630.000000 86.298 71.5400
640.000000 86.380 71.1778
650.000000 86.460 70.8099
660.000000 86.526 70.3646
670.000000 86.590 69.9193
680.000000 86.657 69.4883
690.000000 86.723 69.0515
700.000000 86.786 68.6083
710.000000 86.846 68.1628
720.000000 86.902 67.7176
730.000000 86.954 67.2744
740.000000 86.999 66.8356
750.000000 87.040 66.4054
762.000000 87.097 65.8999
775.000000 87.152 65.3752
788.000000 87.197 64.8826
800.000000 87.233 64.4614
812.000000 87.268 64.0735
825.000000 87.304 63.6856
838.000000 87.341 63.3309
850.000000 87.375 63.0321
862.000000 87.406 62.7803
875.000000 87.440 62.5405
885.000000 87.469 62.3669
900.000000 87.515 62.1369
912.000000 87.555 61.9759
925.000000 87.600 61.8095
938.000000 87.647 61.6466
950.000000 87.693 61.5034
962.000000 87.746 61.3790
975.000000 87.806 61.2464
988.000000 87.866 61.1038
1000.000000 87.923 60.9639
1015.000000 87.997 60.7782
1030.000000 88.069 60.5882
1044.000000 88.136 60.3990
1060.000000 88.218 60.1513
1075.000000 88.296 59.8970
1090.000000 88.373 59.6395
1106.000000 88.453 59.3534
1120.000000 88.520 59.0926
1138.000000 88.606 58.7536
1150.000000 88.662 58.5215
1172.000000 88.758 58.0772
1180.000000 88.792 57.9159
1206.000000 88.902 57.3995
1220.000000 88.960 57.1263
1241.000000 89.047 56.7105
1250.000000 89.083 56.5355
1265.000000 89.138 56.2578
1280.000000 89.193 55.9857
1315.000000 89.322 55.3578
1320.000000 89.340 55.2703
1340.000000 89.412 54.9261
1360.000000 89.486 54.5945
1380.000000 89.562 54.2714
1400.000000 89.638 53.9558
1430.000000 89.751 53.4802
1450.000000 89.829 53.1632
1475.000000 89.928 52.7844
1500.000000 90.030 52.3986
1525.000000 90.134 51.9976
1550.000000 90.243 51.5897
1575.000000 90.354 51.1696
1600.000000 90.468 50.7306
1625.000000 90.588 50.2651
1650.000000 90.712 49.7650
1675.000000 90.838 49.2192
1700.000000 90.968 48.6292
1725.000000 91.100 47.9857
1750.000000 91.235 47.2843
1775.000000 91.370 46.5297
1800.000000 91.504 45.7058
1825.000000 91.638 44.8094
1850.000000 91.771 43.8397
1875.000000 91.898 42.7966
1900.000000 92.021 41.6771
1925.000000 92.139 40.4857
1950.000000 92.249 39.2235
1975.000000 92.353 37.8851
2000.000000 92.447 36.4757
2030.000000 92.546 34.7010
2060.000000 92.627 32.8516
2090.000000 92.688 30.9392
2120.000000 92.729 28.9743
2140.000000 92.744 27.6459
2180.000000 92.745 24.9713
2200.000000 92.731 23.6390
2240.000000 92.674 21.0141
2270.000000 92.608 19.1035
2300.000000 92.524 17.2642
2330.000000 92.423 15.5101
2360.000000 92.309 13.8547
2400.000000 92.143 11.8234
2430.000000 92.010 10.4404
2470.000000 91.830 8.7905
2500.000000 91.697 7.6914
2540.000000 91.533 6.3738
2580.000000 91.388 5.1614
2620.000000 91.260 3.9952
2650.000000 91.170 3.1343
2690.000000 91.053 2.0120
2720.000000 90.971 1.2081
2760.000000 90.870 0.1957
2800.000000 90.784 -0.7640
2850.000000 90.698 -1.9170
2900.000000 90.638 -3.0598
2950.000000 90.603 -4.2236
3000.000000 90.592 -5.4421
3040.000000 90.600 -6.4767
3070.000000 90.614 -7.2952
3110.000000 90.642 -8.4515
3150.000000 90.679 -9.6867
3200.000000 90.734 -11.3489
3250.000000 90.797 -13.1544
3300.000000 90.862 -15.0978
3350.000000 90.924 -17.1790
3400.000000 90.978 -19.3872
3450.000000 91.020 -21.6952
3500.000000 91.046 -24.0718
3550.000000 91.053 -26.4769
3600.000000 91.042 -28.8690
3650.000000 91.013 -31.2036
3700.000000 90.968 -33.4467
3750.000000 90.913 -35.5723
3820.000000 90.824 -38.3070
3870.000000 90.761 -40.0739
3950.000000 90.672 -42.5905
4000.000000 90.629 -43.9912
4060.000000 90.597 -45.5280
4120.000000 90.586 -46.9748
4180.000000 90.593 -48.3881
4250.000000 90.615 -50.0210
4310.000000 90.639 -51.4153
4370.000000 90.665 -52.8040
4440.000000 90.690 -54.4078
4500.000000 90.701 -55.7446
4550.000000 90.701 -56.8024
4620.000000 90.689 -58.1581
4680.000000 90.671 -59.1859
4750.000000 90.645 -60.2219
4820.000000 90.619 -61.0851
4870.000000 90.601 -61.6062
4940.000000 90.575 -62.2060
5000.000000 90.553 -62.6003
5080.000000 90.529 -62.9568
5150.000000 90.511 -63.1112
5220.000000 90.500 -63.1173
5300.000000 90.499 -62.9492
5380.000000 90.517 -62.6206
5450.000000 90.551 -62.2366
5520.000000 90.605 -61.7980
5600.000000 90.689 -61.2666
5700.000000 90.825 -60.6215
5800.000000 90.988 -60.0730
5900.000000 91.173 -59.6786
6000.000000 91.371 -59.4894
6080.000000 91.533 -59.5261
6150.000000 91.670 -59.7153
6220.000000 91.797 -60.0588
6300.000000 91.923 -60.6422
6400.000000 92.038 -61.6331
6500.000000 92.088 -62.8405
6600.000000 92.059 -64.1492
6700.000000 91.945 -65.4023
6800.000000 91.748 -66.4368
6900.000000 91.481 -67.1039
7000.000000 91.163 -67.2881
7100.000000 90.817 -66.9353
7200.000000 90.468 -66.0601
7300.000000 90.134 -64.7065
7400.000000 89.832 -62.9281
7500.000000 89.583 -60.8210
7620.000000 89.366 -58.0598
7750.000000 89.238 -55.0280
7880.000000 89.223 -52.2648
8000.000000 89.293 -50.2803
8120.000000 89.408 -49.1191
8250.000000 89.518 -49.0409
8380.000000 89.518 -50.2328
8500.000000 89.335 -52.1702
8620.000000 88.922 -54.3287
8750.000000 88.212 -56.1162
8850.000000 87.512 -56.6641
9000.000000 86.304 -55.7806
9120.000000 85.273 -53.5608
9250.000000 84.151 -49.6963
9380.000000 83.077 -44.4002
9500.000000 82.172 -38.3495
9620.000000 81.395 -31.3542
9750.000000 80.746 -23.0469
9880.000000 80.321 -14.4524
10000.000000 80.112 -6.6671
10150.000000 80.044 2.4636
10300.000000 80.111 10.7454
10440.000000 80.240 17.8011
10600.000000 80.435 25.2366
10750.000000 80.655 31.7154
10900.000000 80.916 37.7985
11060.000000 81.247 43.7945
11200.000000 81.571 48.5014
11380.000000 81.995 53.7644
11500.000000 82.258 56.8942
11720.000000 82.714 62.3100
11800.000000 82.891 64.2050
12060.000000 83.527 69.5897
12200.000000 83.872 71.8192
12410.000000 84.335 74.4176
12500.000000 84.513 75.3759
12650.000000 84.799 76.8650
12800.000000 85.086 78.1954
13150.000000 85.833 80.4132
13200.000000 85.953 80.5893
13400.000000 86.468 80.6974
13600.000000 87.001 79.5573
13800.000000 87.482 76.9724
14000.000000 87.839 73.0609
14300.000000 88.067 65.5079
14500.000000 88.019 59.9023
14750.000000 87.779 52.6247
15000.000000 87.397 45.0607
15250.000000 86.898 36.8647
15500.000000 86.239 27.6725
15750.000000 85.314 17.6851
16000.000000 84.056 7.7998
16250.000000 82.495 -0.8896
16500.000000 80.757 -7.7532
16750.000000 79.007 -12.9005
17000.000000 77.382 -16.9176
17250.000000 75.972 -20.5457
17500.000000 74.818 -24.5032
17750.000000 73.939 -29.4351
18000.000000 73.344 -35.9756
18250.000000 73.033 -44.8474
18500.000000 72.992 -56.8676
18750.000000 73.241 -72.7426
19000.000000 73.963 -94.1469
19250.000000 74.938 -126.3917
19500.000000 75.102 -172.1685
19750.000000 73.935 139.5406
