* Measurement data measured by REW V5.20.9
* Source: USB-C to 3.5mm Headphone Jack Adapter, USB-C to 3.5mm Headphone Jack Adapter, 0, volume: 0.138
* Format: 256k Log Swept Sine, 1 sweep at -12.0 dBFS with no timing reference
* Dated: 14/06/2023 9:13:53 PM
* REW Settings:
*  C-weighting compensation: Off
*  Target level: 75.0 dB
* Note: ; 
* Measurement: Quartet 00 L
* Smoothing: 1/24 octave
* Frequency Step: 1/48 octave
* Start Frequency: 1.000 Hz
*
* Freq(Hz) SPL(dB) Phase(degrees)
1.000000 63.497 73.6996
1.015000 63.662 72.1448
1.030000 63.831 70.6613
1.044000 63.992 69.3323
1.060000 64.180 67.8747
1.075000 64.361 66.5634
1.090000 64.544 65.3015
1.106000 64.743 64.0052
1.120000 64.919 62.9094
1.138000 65.148 61.5476
1.150000 65.302 60.6660
1.172000 65.587 59.0966
1.180000 65.691 58.5389
1.206000 66.030 56.7645
1.220000 66.212 55.8277
1.241000 66.486 54.4383
1.250000 66.603 53.8462
1.265000 66.797 52.8605
1.280000 66.989 51.8730
1.315000 67.431 49.5384
1.320000 67.494 49.1992
1.340000 67.739 47.8223
1.360000 67.981 46.4174
1.380000 68.222 45.0122
1.400000 68.463 43.6107
1.430000 68.824 41.5198
1.450000 69.063 40.1363
1.475000 69.361 38.4222
1.500000 69.657 36.7290
1.525000 69.951 35.0605
1.550000 70.242 33.4207
1.575000 70.530 31.8136
1.600000 70.814 30.2432
1.625000 71.094 28.7135
1.650000 71.371 27.2283
1.675000 71.642 25.7918
1.700000 71.909 24.4095
1.725000 72.172 23.0851
1.750000 72.431 21.8131
1.775000 72.687 20.5876
1.800000 72.940 19.4026
1.825000 73.189 18.2522
1.850000 73.434 17.1304
1.875000 73.677 16.0313
1.900000 73.916 14.9490
1.925000 74.151 13.8774
1.950000 74.383 12.8107
1.975000 74.612 11.7429
2.000000 74.838 10.6681
2.030000 75.105 9.3635
2.060000 75.366 8.0654
2.090000 75.623 6.7808
2.120000 75.874 5.5097
2.140000 76.039 4.6697
2.180000 76.362 3.0073
2.200000 76.521 2.1849
2.240000 76.832 0.5575
2.270000 77.061 -0.6480
2.300000 77.286 -1.8407
2.330000 77.507 -3.0206
2.360000 77.724 -4.1880
2.400000 78.007 -5.7253
2.430000 78.214 -6.8639
2.470000 78.483 -8.3624
2.500000 78.680 -9.4712
2.540000 78.937 -10.9291
2.580000 79.186 -12.3630
2.620000 79.430 -13.7723
2.650000 79.609 -14.8128
2.690000 79.843 -16.1779
2.720000 80.015 -17.1824
2.760000 80.238 -18.4935
2.800000 80.454 -19.7757
2.850000 80.715 -21.3439
2.900000 80.967 -22.8809
2.950000 81.212 -24.3942
3.000000 81.449 -25.8915
3.040000 81.633 -27.0829
3.070000 81.768 -27.9741
3.110000 81.943 -29.1562
3.150000 82.113 -30.3278
3.200000 82.318 -31.7714
3.250000 82.516 -33.1845
3.300000 82.708 -34.5592
3.350000 82.895 -35.8877
3.400000 83.076 -37.1640
3.450000 83.250 -38.3919
3.500000 83.418 -39.5778
3.550000 83.579 -40.7278
3.600000 83.736 -41.8482
3.650000 83.889 -42.9451
3.700000 84.039 -44.0247
3.750000 84.185 -45.0881
3.820000 84.381 -46.5402
3.870000 84.515 -47.5477
3.950000 84.724 -49.1003
4.000000 84.852 -50.0294
4.060000 85.004 -51.0973
4.120000 85.152 -52.1083
4.180000 85.295 -53.0700
4.250000 85.460 -54.1425
4.310000 85.599 -55.0306
4.370000 85.737 -55.9001
4.440000 85.898 -56.8864
4.500000 86.034 -57.6990
4.550000 86.146 -58.3567
4.620000 86.302 -59.2532
4.680000 86.436 -60.0045
4.750000 86.593 -60.8630
4.820000 86.750 -61.6889
4.870000 86.862 -62.2635
4.940000 87.018 -63.0553
5.000000 87.151 -63.7299
5.080000 87.328 -64.6334
5.150000 87.483 -65.4161
5.220000 87.638 -66.1926
5.300000 87.813 -67.0801
5.380000 87.986 -67.9757
5.450000 88.135 -68.7677
5.520000 88.283 -69.5634
5.600000 88.450 -70.4777
5.700000 88.653 -71.6283
5.800000 88.849 -72.7895
5.900000 89.039 -73.9611
6.000000 89.223 -75.1373
6.080000 89.363 -76.0779
6.150000 89.482 -76.9053
6.220000 89.597 -77.7347
6.300000 89.723 -78.6792
6.400000 89.874 -79.8447
6.500000 90.017 -80.9956
6.600000 90.151 -82.1336
6.700000 90.279 -83.2497
6.800000 90.400 -84.3397
6.900000 90.513 -85.4081
7.000000 90.620 -86.4498
7.100000 90.723 -87.4591
7.200000 90.820 -88.4370
7.300000 90.912 -89.3850
7.400000 91.002 -90.3040
7.500000 91.087 -91.1925
7.620000 91.186 -92.2198
7.750000 91.290 -93.2924
7.880000 91.390 -94.3218
8.000000 91.480 -95.2370
8.120000 91.568 -96.1275
8.250000 91.662 -97.0606
8.380000 91.754 -97.9678
8.500000 91.838 -98.7880
8.620000 91.920 -99.5891
8.750000 92.008 -100.4414
8.850000 92.075 -101.0872
9.000000 92.173 -102.0389
9.120000 92.250 -102.7899
9.250000 92.331 -103.5927
9.380000 92.411 -104.3851
9.500000 92.484 -105.1086
9.620000 92.554 -105.8241
9.750000 92.629 -106.5909
9.880000 92.702 -107.3498
10.000000 92.767 -108.0427
10.150000 92.847 -108.8983
10.300000 92.924 -109.7423
10.440000 92.993 -110.5182
10.600000 93.070 -111.3910
10.750000 93.139 -112.1948
10.900000 93.207 -112.9834
11.060000 93.277 -113.8084
11.200000 93.336 -114.5165
11.380000 93.411 -115.4087
11.500000 93.460 -115.9938
11.720000 93.548 -117.0461
11.800000 93.580 -117.4241
12.060000 93.680 -118.6348
12.200000 93.732 -119.2782
12.410000 93.809 -120.2320
12.500000 93.840 -120.6363
12.650000 93.892 -121.3049
12.800000 93.941 -121.9637
13.150000 94.049 -123.4585
13.200000 94.064 -123.6661
13.400000 94.121 -124.4814
13.600000 94.175 -125.2701
13.800000 94.229 -126.0341
14.000000 94.281 -126.7750
14.300000 94.359 -127.8544
14.500000 94.409 -128.5577
14.750000 94.471 -129.4240
15.000000 94.530 -130.2772
15.250000 94.585 -131.1130
15.500000 94.636 -131.9265
15.750000 94.683 -132.7107
16.000000 94.729 -133.4624
16.250000 94.774 -134.1846
16.500000 94.818 -134.8826
16.750000 94.864 -135.5664
17.000000 94.910 -136.2473
17.250000 94.955 -136.9303
17.500000 94.998 -137.6184
17.750000 95.038 -138.3095
18.000000 95.074 -138.9958
18.250000 95.106 -139.6701
18.500000 95.134 -140.3256
18.750000 95.160 -140.9561
19.000000 95.183 -141.5600
19.250000 95.206 -142.1384
19.500000 95.230 -142.6937
19.750000 95.254 -143.2312
20.000000 95.280 -143.7567
20.299999 95.312 -144.3782
20.600000 95.346 -144.9980
20.900000 95.380 -145.6219
21.200001 95.413 -146.2519
21.400000 95.433 -146.6739
21.799999 95.471 -147.5118
22.000000 95.487 -147.9224
22.400000 95.516 -148.7170
22.700001 95.537 -149.2859
23.000000 95.557 -149.8345
23.299999 95.578 -150.3686
23.600000 95.599 -150.8946
24.000000 95.626 -151.5888
24.299999 95.644 -152.1020
24.700001 95.667 -152.7692
25.000000 95.683 -153.2534
25.400000 95.704 -153.8797
25.799999 95.725 -154.4941
26.200001 95.747 -155.1078
26.500000 95.763 -155.5696
26.900000 95.781 -156.1830
27.200001 95.793 -156.6364
27.600000 95.807 -157.2271
28.000000 95.820 -157.8018
28.500000 95.836 -158.5033
29.000000 95.851 -159.1919
29.500000 95.864 -159.8647
30.000000 95.874 -160.5124
30.400000 95.882 -161.0077
30.700001 95.887 -161.3657
31.100000 95.896 -161.8288
31.500000 95.906 -162.2836
32.000000 95.920 -162.8538
32.500000 95.933 -163.4322
33.000000 95.943 -164.0082
33.500000 95.949 -164.5665
34.000000 95.954 -165.1049
34.500000 95.960 -165.6364
35.000000 95.965 -166.1702
35.500000 95.966 -166.6974
36.000000 95.965 -167.2007
36.500000 95.965 -167.6773
37.000000 95.968 -168.1438
37.500000 95.973 -168.6151
38.200001 95.977 -169.2756
38.700001 95.979 -169.7342
39.500000 95.983 -170.4547
40.000000 95.983 -170.9022
40.599998 95.980 -171.4123
41.200001 95.978 -171.8787
41.799999 95.980 -172.3365
42.500000 95.983 -172.9171
43.099998 95.976 -173.4337
43.700001 95.963 -173.9137
44.400002 95.949 -174.4207
45.000000 95.942 -174.8492
45.500000 95.937 -175.2183
46.200001 95.930 -175.7503
46.799999 95.923 -176.2088
47.500000 95.915 -176.7231
48.200001 95.912 -177.2137
48.700001 95.913 -177.5805
49.400002 95.912 -178.1390
50.000000 95.900 -178.5991
50.799999 95.881 -179.0870
51.500000 95.877 -179.4643
52.200001 95.876 -179.8958
53.000000 95.864 179.5936
53.799999 95.847 179.1355
54.500000 95.834 178.7397
55.200001 95.820 178.3300
56.000000 95.802 177.8640
57.000000 95.780 177.2746
58.000000 95.756 176.6854
59.000000 95.733 176.1136
60.000000 95.707 175.5620
60.799999 95.686 175.1538
61.500000 95.668 174.8163
62.200001 95.652 174.4870
63.000000 95.636 174.1031
64.000000 95.615 173.5723
65.000000 95.584 173.0090
66.000000 95.546 172.4939
67.000000 95.514 172.0235
68.000000 95.486 171.5516
69.000000 95.454 171.0917
70.000000 95.422 170.6839
71.000000 95.391 170.2883
72.000000 95.355 169.8870
73.000000 95.315 169.5016
74.000000 95.274 169.1025
75.000000 95.230 168.7001
76.199997 95.175 168.2402
77.500000 95.118 167.7819
78.800003 95.060 167.3652
80.000000 95.001 167.0579
81.199997 94.946 166.8000
82.500000 94.879 166.4707
83.800003 94.786 166.1895
85.000000 94.691 166.1042
86.199997 94.601 166.2000
87.500000 94.518 166.5656
88.500000 94.483 167.0782
90.000000 94.519 168.0330
91.199997 94.634 168.6441
92.500000 94.820 168.7795
93.800003 95.006 168.1907
95.000000 95.125 167.1913
96.199997 95.185 166.0440
97.500000 95.196 164.8546
98.800003 95.172 163.8238
100.000000 95.135 163.0055
101.500000 95.078 162.0958
103.000000 95.013 161.2963
104.400002 94.950 160.6412
106.000000 94.881 159.9803
107.500000 94.818 159.4247
109.000000 94.757 158.9177
110.599998 94.693 158.4045
112.000000 94.636 157.9723
113.800003 94.561 157.4415
115.000000 94.512 157.1120
117.199997 94.424 156.5570
118.000000 94.392 156.3713
120.599998 94.291 155.8343
122.000000 94.240 155.5885
124.099998 94.173 155.2482
125.000000 94.149 155.0994
126.500000 94.113 154.8310
128.000000 94.082 154.5240
131.500000 93.998 153.6931
132.000000 93.984 153.5679
134.000000 93.924 153.0658
136.000000 93.860 152.5804
138.000000 93.793 152.1333
140.000000 93.724 151.7154
143.000000 93.617 151.1093
145.000000 93.551 150.7193
147.500000 93.480 150.2851
150.000000 93.408 149.8488
152.500000 93.308 149.4325
155.000000 93.208 149.0689
157.500000 93.119 148.6837
160.000000 93.035 148.3213
162.500000 92.952 147.9897
165.000000 92.868 147.6595
167.500000 92.786 147.3348
170.000000 92.703 147.0308
172.500000 92.620 146.7454
175.000000 92.537 146.4622
177.500000 92.455 146.1860
180.000000 92.373 145.9193
182.500000 92.291 145.6710
185.000000 92.210 145.4340
187.500000 92.128 145.2078
190.000000 92.047 144.9958
192.500000 91.966 144.7862
195.000000 91.883 144.6038
197.500000 91.801 144.4399
200.000000 91.721 144.2906
203.000000 91.631 144.1241
206.000000 91.542 143.9798
209.000000 91.464 143.8660
212.000000 91.393 143.6499
214.000000 91.337 143.4933
218.000000 91.227 143.2856
220.000000 91.178 143.1561
224.000000 91.069 142.8430
227.000000 90.980 142.6238
230.000000 90.888 142.4276
233.000000 90.792 142.2740
236.000000 90.698 142.1661
240.000000 90.578 142.0941
243.000000 90.497 142.0694
247.000000 90.406 141.9846
250.000000 90.338 141.8608
254.000000 90.234 141.6737
258.000000 90.121 141.4748
262.000000 90.009 141.2930
265.000000 89.921 141.1798
269.000000 89.803 141.0479
272.000000 89.714 140.9681
276.000000 89.595 140.8953
280.000000 89.476 140.8453
285.000000 89.329 140.8149
290.000000 89.182 140.8246
295.000000 89.035 140.8615
300.000000 88.889 140.9320
304.000000 88.773 141.0144
307.000000 88.685 141.0866
311.000000 88.569 141.1931
315.000000 88.455 141.3189
320.000000 88.315 141.5106
325.000000 88.174 141.7386
330.000000 88.034 141.9977
335.000000 87.897 142.2878
340.000000 87.761 142.6195
345.000000 87.630 142.9717
350.000000 87.502 143.3483
355.000000 87.375 143.8010
360.000000 87.250 144.2993
365.000000 87.130 144.8157
370.000000 87.014 145.3604
375.000000 86.905 145.9417
382.000000 86.763 146.8124
387.000000 86.667 147.4698
395.000000 86.530 148.5655
400.000000 86.455 149.2655
406.000000 86.375 150.1250
412.000000 86.305 150.9864
418.000000 86.247 151.8457
425.000000 86.194 152.8412
431.000000 86.161 153.6689
437.000000 86.137 154.4640
444.000000 86.121 155.3232
450.000000 86.117 156.0198
455.000000 86.116 156.6180
462.000000 86.121 157.4050
468.000000 86.130 158.0000
475.000000 86.145 158.6229
482.000000 86.163 159.1819
487.000000 86.177 159.5446
494.000000 86.196 160.0055
500.000000 86.213 160.3665
508.000000 86.234 160.8053
515.000000 86.251 161.1514
522.000000 86.265 161.4647
530.000000 86.279 161.7909
538.000000 86.290 162.0902
545.000000 86.297 162.3513
552.000000 86.301 162.5888
560.000000 86.303 162.8110
570.000000 86.304 163.0886
580.000000 86.301 163.3685
590.000000 86.295 163.6513
600.000000 86.287 163.9301
608.000000 86.278 164.1533
615.000000 86.270 164.3577
622.000000 86.262 164.5698
630.000000 86.252 164.8143
640.000000 86.241 165.1115
650.000000 86.231 165.4075
660.000000 86.220 165.7449
670.000000 86.209 166.0836
680.000000 86.201 166.4193
690.000000 86.194 166.7556
700.000000 86.191 167.0935
710.000000 86.190 167.4169
720.000000 86.191 167.7109
730.000000 86.191 167.9496
740.000000 86.177 168.1227
750.000000 86.139 168.3516
762.000000 86.092 168.9385
775.000000 86.087 169.7832
788.000000 86.116 170.5006
800.000000 86.149 171.0474
812.000000 86.182 171.5472
825.000000 86.219 172.0608
838.000000 86.258 172.5612
850.000000 86.298 173.0099
862.000000 86.343 173.4312
875.000000 86.396 173.8676
885.000000 86.439 174.1859
900.000000 86.508 174.6401
912.000000 86.568 174.9812
925.000000 86.635 175.3204
938.000000 86.705 175.6276
950.000000 86.772 175.8802
962.000000 86.841 176.0894
975.000000 86.918 176.2792
988.000000 86.997 176.4329
1000.000000 87.070 176.5397
1015.000000 87.162 176.6282
1030.000000 87.254 176.6638
1044.000000 87.336 176.6483
1060.000000 87.430 176.5775
1075.000000 87.516 176.4621
1090.000000 87.598 176.3031
1106.000000 87.681 176.0897
1120.000000 87.748 175.8671
1138.000000 87.828 175.5370
1150.000000 87.877 175.2925
1172.000000 87.956 174.7963
1180.000000 87.981 174.6058
1206.000000 88.049 173.9535
1220.000000 88.077 173.5903
1241.000000 88.107 173.0410
1250.000000 88.116 172.8087
1265.000000 88.124 172.4315
1280.000000 88.126 172.0645
1315.000000 88.106 171.2662
1320.000000 88.100 171.1625
1340.000000 88.072 170.7797
1360.000000 88.035 170.4606
1380.000000 87.991 170.2134
1400.000000 87.940 170.0385
1430.000000 87.856 169.9272
1450.000000 87.797 169.9563
1475.000000 87.722 170.1172
1500.000000 87.650 170.4101
1525.000000 87.583 170.8312
1550.000000 87.525 171.3728
1575.000000 87.479 172.0349
1600.000000 87.447 172.8020
1625.000000 87.431 173.6553
1650.000000 87.433 174.5777
1675.000000 87.453 175.5555
1700.000000 87.493 176.5762
1725.000000 87.556 177.6222
1750.000000 87.639 178.6737
1775.000000 87.743 179.7158
1800.000000 87.868 -179.2671
1825.000000 88.014 -178.2897
1850.000000 88.179 -177.3727
1875.000000 88.364 -176.5288
1900.000000 88.565 -175.7703
1925.000000 88.780 -175.1090
1950.000000 89.010 -174.5554
1975.000000 89.251 -174.1190
2000.000000 89.502 -173.8088
2030.000000 89.813 -173.6077
2060.000000 90.130 -173.6035
2090.000000 90.451 -173.8100
2120.000000 90.770 -174.2209
2140.000000 90.979 -174.6077
2180.000000 91.382 -175.6445
2200.000000 91.574 -176.2873
2240.000000 91.934 -177.7976
2270.000000 92.178 -179.1043
2300.000000 92.397 179.4646
2330.000000 92.587 177.9350
2360.000000 92.747 176.3419
2400.000000 92.914 174.1824
2430.000000 93.004 172.5717
2470.000000 93.081 170.4857
2500.000000 93.109 169.0036
2540.000000 93.113 167.1835
2580.000000 93.084 165.5878
2620.000000 93.035 164.2395
2650.000000 92.990 163.3909
2690.000000 92.932 162.4810
2720.000000 92.897 161.9483
2760.000000 92.871 161.3683
2800.000000 92.870 160.8245
2850.000000 92.889 160.0720
2900.000000 92.906 159.2452
2950.000000 92.915 158.4651
3000.000000 92.927 157.7906
3040.000000 92.943 157.3164
3070.000000 92.962 156.9861
3110.000000 92.997 156.5623
3150.000000 93.043 156.1393
3200.000000 93.117 155.5781
3250.000000 93.206 154.9383
3300.000000 93.309 154.1876
3350.000000 93.421 153.2937
3400.000000 93.537 152.2194
3450.000000 93.651 150.9352
3500.000000 93.754 149.4179
3550.000000 93.835 147.6448
3600.000000 93.882 145.6161
3650.000000 93.881 143.3670
3700.000000 93.818 140.9635
3750.000000 93.684 138.5057
3820.000000 93.370 135.2177
3870.000000 93.064 133.1298
3950.000000 92.455 130.3905
4000.000000 92.006 129.1179
4060.000000 91.401 128.1649
4120.000000 90.739 128.0002
4180.000000 90.040 128.7842
4250.000000 89.221 131.0963
4310.000000 88.569 134.3742
4370.000000 88.022 138.8266
4440.000000 87.605 145.2763
4500.000000 87.512 151.4625
4550.000000 87.651 156.6588
4620.000000 88.168 163.2514
4680.000000 88.845 167.6392
4750.000000 89.781 170.7338
4820.000000 90.726 171.4520
4870.000000 91.330 170.6093
4940.000000 91.995 167.9381
5000.000000 92.362 164.7730
5080.000000 92.549 160.2108
5150.000000 92.468 156.6087
5220.000000 92.221 153.8033
5300.000000 91.814 151.7598
5380.000000 91.350 150.9081
5450.000000 90.939 150.9847
5520.000000 90.544 151.6716
5600.000000 90.119 153.0781
5700.000000 89.647 155.6573
5800.000000 89.267 158.8881
5900.000000 88.974 162.5498
6000.000000 88.760 166.5321
6080.000000 88.647 169.9065
6150.000000 88.589 172.9705
6220.000000 88.570 176.1151
6300.000000 88.596 179.7841
6400.000000 88.701 -175.5537
6500.000000 88.888 -170.8470
6600.000000 89.157 -166.1398
6700.000000 89.512 -161.4684
6800.000000 89.961 -156.8696
6900.000000 90.514 -152.4157
7000.000000 91.176 -148.2388
7100.000000 91.946 -144.4496
7200.000000 92.833 -141.0850
7300.000000 93.862 -138.2886
7400.000000 95.041 -136.3976
7500.000000 96.356 -135.8404
7620.000000 98.039 -137.6217
7750.000000 99.788 -143.4664
7880.000000 101.142 -153.5912
8000.000000 101.814 -165.3223
8120.000000 101.925 -177.0293
8250.000000 101.615 172.0106
8380.000000 101.090 162.7798
8500.000000 100.493 155.0148
8620.000000 99.745 147.5910
8750.000000 98.692 140.2758
8850.000000 97.695 135.6863
9000.000000 95.969 131.2927
9120.000000 94.499 130.1527
9250.000000 92.945 131.0710
9380.000000 91.523 133.7678
9500.000000 90.378 137.4073
9620.000000 89.423 141.7412
9750.000000 88.619 146.7653
9880.000000 88.060 151.6163
10000.000000 87.755 155.3210
10150.000000 87.569 157.6078
10300.000000 87.272 155.7159
10440.000000 86.327 151.4506
10600.000000 83.923 153.4090
10750.000000 81.160 169.7999
10900.000000 80.278 -168.3501
11060.000000 81.329 -151.7896
11200.000000 82.461 -143.9376
11380.000000 83.629 -138.8997
11500.000000 84.245 -137.1013
11720.000000 85.134 -136.0410
11800.000000 85.357 -136.3433
12060.000000 85.585 -138.2000
12200.000000 85.441 -138.6378
12410.000000 85.057 -137.5749
12500.000000 84.883 -136.4609
12650.000000 84.644 -133.8428
12800.000000 84.524 -130.4852
13150.000000 85.014 -121.7754
13200.000000 85.192 -120.7095
13400.000000 86.140 -118.0066
13600.000000 87.212 -119.1820
13800.000000 87.951 -124.2714
14000.000000 88.197 -130.2262
14300.000000 88.474 -136.5615
14500.000000 89.043 -142.2531
14750.000000 89.600 -156.1241
15000.000000 89.007 -174.8891
15250.000000 87.110 170.5003
15500.000000 84.657 163.5762
15750.000000 82.412 161.6446
16000.000000 80.658 161.6502
16250.000000 79.349 161.9170
16500.000000 78.366 161.7509
16750.000000 77.647 160.9432
17000.000000 77.211 159.2741
17250.000000 77.097 156.1353
17500.000000 77.291 150.6294
17750.000000 77.720 141.8366
18000.000000 78.257 129.0205
18250.000000 78.763 111.8597
18500.000000 79.145 90.2954
18750.000000 79.372 63.9374
19000.000000 79.372 31.6180
19250.000000 78.927 -7.9247
19500.000000 77.727 -53.6723
19750.000000 75.674 -98.4109
