* Measurement data measured by REW V5.20.9
* Source: Headset (USB-C to 3.5mm Headphone Jack Adapter), MICROPHONE (Master Volume), L, volume: 0.260. Timing signal peak level -31.3 dBFS, measurement signal peak level -16.5 dBFS
* Format: 256k Log Swept Sine, 1 sweep at -12.0 dBFS using an acoustic timing reference
* Dated: 18/03/2024 9:24:41 PM
* REW Settings:
*  C-weighting compensation: Off
*  Target level: 75.0 dB
* Note: ; Delay -0.0332 ms (-11 mm, -0.45 in) using estimated IR delay relative to Acoustic reference on SPEAKER R with no timing offset
* Measurement: Scarlet Mini R
* Smoothing: 1/24 octave
* Frequency Step: 1/48 octave
* Start Frequency: 1.000 Hz
*
* Freq(Hz) SPL(dB) Phase(degrees)
1.000000 68.983 -130.2344
1.015000 69.232 -131.8930
1.030000 69.477 -133.4894
1.044000 69.703 -134.9174
1.060000 69.956 -136.4693
1.075000 70.190 -137.8397
1.090000 70.418 -139.1218
1.106000 70.656 -140.3848
1.120000 70.863 -141.4009
1.138000 71.125 -142.5938
1.150000 71.299 -143.3231
1.172000 71.615 -144.5357
1.180000 71.729 -144.9399
1.206000 72.096 -146.1347
1.220000 72.291 -146.7112
1.241000 72.581 -147.5028
1.250000 72.704 -147.8190
1.265000 72.909 -148.3205
1.280000 73.111 -148.7957
1.315000 73.577 -149.8392
1.320000 73.643 -149.9843
1.340000 73.904 -150.5648
1.360000 74.162 -151.1567
1.380000 74.418 -151.7755
1.400000 74.670 -152.4366
1.430000 75.043 -153.5415
1.450000 75.288 -154.3763
1.475000 75.590 -155.5490
1.500000 75.886 -156.8059
1.525000 76.178 -158.1210
1.550000 76.464 -159.4837
1.575000 76.746 -160.8833
1.600000 77.023 -162.3091
1.625000 77.295 -163.7505
1.650000 77.563 -165.1969
1.675000 77.826 -166.6375
1.700000 78.085 -168.0619
1.725000 78.341 -169.4592
1.750000 78.592 -170.8188
1.775000 78.840 -172.1302
1.800000 79.084 -173.3827
1.825000 79.325 -174.5655
1.850000 79.562 -175.6760
1.875000 79.795 -176.7305
1.900000 80.023 -177.7357
1.925000 80.247 -178.6974
1.950000 80.467 -179.6217
1.975000 80.683 179.4857
2.000000 80.895 178.6186
2.030000 81.144 177.6036
2.060000 81.389 176.6068
2.090000 81.629 175.6177
2.120000 81.865 174.6264
2.140000 82.020 173.9591
2.180000 82.325 172.5955
2.200000 82.476 171.8933
2.240000 82.770 170.4722
2.270000 82.984 169.4031
2.300000 83.194 168.3334
2.330000 83.399 167.2651
2.360000 83.600 166.2002
2.400000 83.861 164.7890
2.430000 84.053 163.7397
2.470000 84.303 162.3567
2.500000 84.487 161.3339
2.540000 84.728 159.9933
2.580000 84.963 158.6816
2.620000 85.193 157.3869
2.650000 85.360 156.4260
2.690000 85.577 155.1600
2.720000 85.736 154.2231
2.760000 85.943 152.9925
2.800000 86.146 151.7851
2.850000 86.392 150.3117
2.900000 86.633 148.8823
2.950000 86.868 147.5023
3.000000 87.095 146.1832
3.040000 87.272 145.1665
3.070000 87.401 144.4224
3.110000 87.569 143.4499
3.150000 87.734 142.4942
3.200000 87.936 141.3140
3.250000 88.133 140.1384
3.300000 88.327 138.9556
3.350000 88.516 137.7627
3.400000 88.700 136.5690
3.450000 88.878 135.3833
3.500000 89.053 134.2141
3.550000 89.223 133.0699
3.600000 89.391 131.9594
3.650000 89.556 130.8913
3.700000 89.719 129.8745
3.750000 89.878 128.9084
3.820000 90.095 127.6203
3.870000 90.247 126.7306
3.950000 90.484 125.3284
4.000000 90.630 124.4478
4.060000 90.803 123.3719
4.120000 90.972 122.2889
4.180000 91.137 121.2084
4.250000 91.327 119.9608
4.310000 91.486 118.9110
4.370000 91.642 117.8870
4.440000 91.821 116.7338
4.500000 91.971 115.7791
4.550000 92.094 115.0017
4.620000 92.263 113.9321
4.680000 92.405 113.0243
4.750000 92.567 111.9650
4.820000 92.724 110.8998
4.870000 92.835 110.1403
4.940000 92.986 109.0828
5.000000 93.112 108.1859
5.080000 93.277 107.0096
5.150000 93.417 106.0042
5.220000 93.553 105.0188
5.300000 93.704 103.9141
5.380000 93.851 102.8307
5.450000 93.976 101.8989
5.520000 94.098 100.9812
5.600000 94.234 99.9512
5.700000 94.398 98.6916
5.800000 94.557 97.4621
5.900000 94.713 96.2619
6.000000 94.864 95.0932
6.080000 94.981 94.1792
6.150000 95.083 93.3933
6.220000 95.183 92.6190
6.300000 95.295 91.7510
6.400000 95.434 90.6927
6.500000 95.570 89.6542
6.600000 95.703 88.6254
6.700000 95.834 87.6063
6.800000 95.963 86.6003
6.900000 96.089 85.6048
7.000000 96.212 84.6181
7.100000 96.333 83.6421
7.200000 96.451 82.6753
7.300000 96.566 81.7153
7.400000 96.677 80.7597
7.500000 96.785 79.8091
7.620000 96.910 78.6804
7.750000 97.040 77.4781
7.880000 97.163 76.2946
8.000000 97.273 75.2209
8.120000 97.379 74.1683
8.250000 97.488 73.0505
8.380000 97.594 71.9560
8.500000 97.689 70.9675
8.620000 97.780 70.0004
8.750000 97.877 68.9720
8.850000 97.950 68.1922
9.000000 98.058 67.0448
9.120000 98.141 66.1394
9.250000 98.230 65.1666
9.380000 98.317 64.2047
9.500000 98.395 63.3233
9.620000 98.471 62.4464
9.750000 98.551 61.5026
9.880000 98.627 60.5656
10.000000 98.696 59.7058
10.150000 98.777 58.6393
10.300000 98.855 57.5872
10.440000 98.924 56.6178
10.600000 98.998 55.5269
10.750000 99.065 54.5232
10.900000 99.128 53.5370
11.060000 99.193 52.5046
11.200000 99.248 51.6185
11.380000 99.316 50.4976
11.500000 99.360 49.7616
11.720000 99.438 48.4319
11.800000 99.465 47.9531
12.060000 99.552 46.4156
12.200000 99.596 45.5965
12.410000 99.659 44.3803
12.500000 99.685 43.8641
12.650000 99.726 43.0099
12.800000 99.765 42.1654
13.150000 99.849 40.2368
13.200000 99.861 39.9666
13.400000 99.903 38.8991
13.600000 99.944 37.8530
13.800000 99.982 36.8285
14.000000 100.019 35.8225
14.300000 100.071 34.3461
14.500000 100.105 33.3798
14.750000 100.144 32.1898
15.000000 100.180 31.0185
15.250000 100.214 29.8652
15.500000 100.245 28.7317
15.750000 100.273 27.6190
16.000000 100.297 26.5290
16.250000 100.320 25.4625
16.500000 100.340 24.4193
16.750000 100.359 23.3983
17.000000 100.376 22.3959
17.250000 100.392 21.4097
17.500000 100.407 20.4365
17.750000 100.419 19.4738
18.000000 100.429 18.5217
18.250000 100.437 17.5804
18.500000 100.441 16.6537
18.750000 100.442 15.7447
19.000000 100.441 14.8563
19.250000 100.437 13.9919
19.500000 100.432 13.1511
19.750000 100.426 12.3334
20.000000 100.419 11.5349
20.299999 100.412 10.5961
20.600000 100.404 9.6722
20.900000 100.395 8.7579
21.200001 100.385 7.8505
21.400000 100.376 7.2501
21.799999 100.357 6.0646
22.000000 100.345 5.4824
22.400000 100.319 4.3456
22.700001 100.297 3.5203
23.000000 100.274 2.7186
23.299999 100.252 1.9371
23.600000 100.230 1.1702
24.000000 100.201 0.1602
24.299999 100.179 -0.5940
24.700001 100.147 -1.5964
25.000000 100.121 -2.3404
25.400000 100.081 -3.3097
25.799999 100.037 -4.2392
26.200001 99.992 -5.1232
26.500000 99.958 -5.7592
26.900000 99.914 -6.5778
27.200001 99.881 -7.1731
27.600000 99.838 -7.9424
28.000000 99.796 -8.6824
28.500000 99.748 -9.5746
29.000000 99.707 -10.4609
29.500000 99.669 -11.3741
30.000000 99.629 -12.3204
30.400000 99.592 -13.0857
30.700001 99.561 -13.6544
31.100000 99.517 -14.3973
31.500000 99.470 -15.1174
32.000000 99.409 -15.9788
32.500000 99.347 -16.7881
33.000000 99.289 -17.5508
33.500000 99.237 -18.2959
34.000000 99.189 -19.0579
34.500000 99.139 -19.8416
35.000000 99.084 -20.6210
35.500000 99.025 -21.3717
36.000000 98.965 -22.0950
36.500000 98.904 -22.8024
37.000000 98.840 -23.4924
37.500000 98.774 -24.1538
38.200001 98.682 -25.0383
38.700001 98.616 -25.6633
39.500000 98.504 -26.6521
40.000000 98.430 -27.2351
40.599998 98.342 -27.8891
41.200001 98.259 -28.5136
41.799999 98.182 -29.1290
42.500000 98.098 -29.8567
43.099998 98.029 -30.5057
43.700001 97.959 -31.1696
44.400002 97.873 -31.9150
45.000000 97.799 -32.4995
45.500000 97.741 -32.9575
46.200001 97.666 -33.5890
46.799999 97.601 -34.1367
47.500000 97.521 -34.7581
48.200001 97.438 -35.3235
48.700001 97.382 -35.7048
49.400002 97.306 -36.2648
50.000000 97.236 -36.7853
50.799999 97.127 -37.4510
51.500000 97.030 -37.9466
52.200001 96.941 -38.4171
53.000000 96.843 -38.9989
53.799999 96.738 -39.5837
54.500000 96.644 -40.0426
55.200001 96.554 -40.4506
56.000000 96.459 -40.8846
57.000000 96.349 -41.4351
58.000000 96.238 -42.0335
59.000000 96.118 -42.6438
60.000000 95.989 -43.2119
60.799999 95.886 -43.6389
61.500000 95.796 -44.0045
62.200001 95.707 -44.3624
63.000000 95.607 -44.7611
64.000000 95.486 -45.2507
65.000000 95.367 -45.7125
66.000000 95.256 -46.1285
67.000000 95.154 -46.5360
68.000000 95.058 -46.9709
69.000000 94.961 -47.4218
70.000000 94.862 -47.8632
71.000000 94.761 -48.2861
72.000000 94.659 -48.6959
73.000000 94.555 -49.0940
74.000000 94.448 -49.4761
75.000000 94.339 -49.8406
76.199997 94.207 -50.2550
77.500000 94.071 -50.6962
78.800003 93.940 -51.1515
80.000000 93.823 -51.5578
81.199997 93.712 -51.9283
82.500000 93.598 -52.2905
83.800003 93.484 -52.6095
85.000000 93.377 -52.8706
86.199997 93.267 -53.1128
87.500000 93.143 -53.3743
88.500000 93.045 -53.5845
90.000000 92.895 -53.9230
91.199997 92.773 -54.2176
92.500000 92.639 -54.5275
93.800003 92.509 -54.7967
95.000000 92.395 -55.0244
96.199997 92.285 -55.2414
97.500000 92.169 -55.4576
98.800003 92.055 -55.6573
100.000000 91.948 -55.8121
101.500000 91.818 -55.9496
103.000000 91.693 -56.0665
104.400002 91.575 -56.1693
106.000000 91.436 -56.2678
107.500000 91.301 -56.3262
109.000000 91.164 -56.3516
110.599998 91.016 -56.3329
112.000000 90.888 -56.2635
113.800003 90.733 -56.0739
115.000000 90.638 -55.8973
117.199997 90.492 -55.4882
118.000000 90.451 -55.3267
120.599998 90.378 -54.9851
122.000000 90.365 -55.0213
124.099998 90.344 -55.4069
125.000000 90.325 -55.6624
126.500000 90.273 -56.1403
128.000000 90.196 -56.6223
131.500000 89.961 -57.6254
132.000000 89.924 -57.7516
134.000000 89.772 -58.1959
136.000000 89.617 -58.4745
138.000000 89.470 -58.6276
140.000000 89.324 -58.7402
143.000000 89.103 -58.8802
145.000000 88.959 -58.9678
147.500000 88.793 -59.0789
150.000000 88.628 -59.1894
152.500000 88.456 -59.1544
155.000000 88.293 -59.0605
157.500000 88.132 -59.0098
160.000000 87.972 -58.9615
162.500000 87.817 -58.8940
165.000000 87.666 -58.8096
167.500000 87.518 -58.7167
170.000000 87.371 -58.6048
172.500000 87.225 -58.4758
175.000000 87.082 -58.3457
177.500000 86.943 -58.2040
180.000000 86.807 -58.0492
182.500000 86.672 -57.8896
185.000000 86.538 -57.7244
187.500000 86.408 -57.5475
190.000000 86.279 -57.3548
192.500000 86.152 -57.1528
195.000000 86.028 -56.9431
197.500000 85.907 -56.7218
200.000000 85.786 -56.4991
203.000000 85.636 -56.2187
206.000000 85.491 -55.9241
209.000000 85.353 -55.6310
212.000000 85.219 -55.3315
214.000000 85.130 -55.1270
218.000000 84.954 -54.7075
220.000000 84.867 -54.4899
224.000000 84.701 -54.0451
227.000000 84.579 -53.7150
230.000000 84.455 -53.3907
233.000000 84.329 -53.0718
236.000000 84.204 -52.7297
240.000000 84.045 -52.2192
243.000000 83.927 -51.8181
247.000000 83.776 -51.2344
250.000000 83.665 -50.7839
254.000000 83.506 -50.2134
258.000000 83.351 -49.5920
262.000000 83.208 -48.8773
265.000000 83.106 -48.2874
269.000000 82.983 -47.4483
272.000000 82.906 -46.8173
276.000000 82.827 -46.0343
280.000000 82.766 -45.3616
285.000000 82.692 -44.7115
290.000000 82.602 -44.2152
295.000000 82.491 -43.7611
300.000000 82.367 -43.2837
304.000000 82.271 -42.8602
307.000000 82.199 -42.5214
311.000000 82.102 -42.0465
315.000000 82.006 -41.5496
320.000000 81.888 -40.9048
325.000000 81.774 -40.2503
330.000000 81.667 -39.5884
335.000000 81.562 -38.9178
340.000000 81.462 -38.2374
345.000000 81.370 -37.5419
350.000000 81.283 -36.8363
355.000000 81.192 -36.1480
360.000000 81.105 -35.4688
365.000000 81.024 -34.7880
370.000000 80.947 -34.1130
375.000000 80.873 -33.4401
382.000000 80.777 -32.5007
387.000000 80.714 -31.8391
395.000000 80.627 -30.8096
400.000000 80.581 -30.1762
406.000000 80.527 -29.4373
412.000000 80.479 -28.7692
418.000000 80.444 -28.2233
425.000000 80.415 -27.8559
431.000000 80.353 -28.0161
437.000000 80.162 -28.1772
444.000000 79.881 -27.0289
450.000000 79.749 -25.4815
455.000000 79.699 -24.3838
462.000000 79.655 -23.1458
468.000000 79.622 -22.2296
475.000000 79.586 -21.2474
482.000000 79.551 -20.3176
487.000000 79.525 -19.6875
494.000000 79.490 -18.8507
500.000000 79.460 -18.1631
508.000000 79.417 -17.2800
515.000000 79.382 -16.5283
522.000000 79.349 -15.7933
530.000000 79.313 -14.9871
538.000000 79.279 -14.2172
545.000000 79.248 -13.5815
552.000000 79.211 -13.0068
560.000000 79.151 -12.4056
570.000000 79.040 -11.5192
580.000000 78.933 -10.2683
590.000000 78.876 -8.8611
600.000000 78.851 -7.5812
608.000000 78.835 -6.6906
615.000000 78.820 -5.9562
622.000000 78.805 -5.2394
630.000000 78.788 -4.4354
640.000000 78.770 -3.4523
650.000000 78.752 -2.4759
660.000000 78.729 -1.4735
670.000000 78.708 -0.4882
680.000000 78.692 0.4810
690.000000 78.680 1.4311
700.000000 78.670 2.3719
710.000000 78.658 3.3181
720.000000 78.647 4.2672
730.000000 78.639 5.2101
740.000000 78.632 6.1497
750.000000 78.628 7.0848
762.000000 78.630 8.1757
775.000000 78.636 9.3567
788.000000 78.646 10.5261
800.000000 78.658 11.5951
812.000000 78.671 12.6701
825.000000 78.690 13.8146
838.000000 78.715 14.9431
850.000000 78.741 15.9724
862.000000 78.772 16.9812
875.000000 78.810 18.0601
885.000000 78.842 18.8817
900.000000 78.893 20.0765
912.000000 78.938 21.0005
925.000000 78.989 21.9802
938.000000 79.043 22.9243
950.000000 79.096 23.7639
962.000000 79.151 24.5870
975.000000 79.213 25.4474
988.000000 79.278 26.2765
1000.000000 79.339 27.0146
1015.000000 79.412 27.8915
1030.000000 79.486 28.7210
1044.000000 79.556 29.4576
1060.000000 79.635 30.2611
1075.000000 79.709 30.9775
1090.000000 79.780 31.6525
1106.000000 79.854 32.3496
1120.000000 79.916 32.9447
1138.000000 79.991 33.6714
1150.000000 80.039 34.1369
1172.000000 80.124 34.9678
1180.000000 80.153 35.2635
1206.000000 80.242 36.2098
1220.000000 80.285 36.7021
1241.000000 80.346 37.4396
1250.000000 80.372 37.7556
1265.000000 80.412 38.2794
1280.000000 80.450 38.8068
1315.000000 80.537 40.0571
1320.000000 80.550 40.2380
1340.000000 80.597 40.9646
1360.000000 80.644 41.6986
1380.000000 80.690 42.4361
1400.000000 80.738 43.1774
1430.000000 80.812 44.2901
1450.000000 80.863 45.0243
1475.000000 80.928 45.9328
1500.000000 80.994 46.8282
1525.000000 81.060 47.6936
1550.000000 81.123 48.5335
1575.000000 81.185 49.3654
1600.000000 81.244 50.2043
1625.000000 81.301 51.0488
1650.000000 81.356 51.9009
1675.000000 81.411 52.7650
1700.000000 81.468 53.6396
1725.000000 81.525 54.5347
1750.000000 81.584 55.4488
1775.000000 81.645 56.3754
1800.000000 81.712 57.3057
1825.000000 81.781 58.2333
1850.000000 81.854 59.1669
1875.000000 81.930 60.1026
1900.000000 82.010 61.0323
1925.000000 82.095 61.9503
1950.000000 82.184 62.8599
1975.000000 82.276 63.7584
2000.000000 82.374 64.6442
2030.000000 82.497 65.6905
2060.000000 82.627 66.7039
2090.000000 82.761 67.6862
2120.000000 82.902 68.6339
2140.000000 82.998 69.2405
2180.000000 83.197 70.3819
2200.000000 83.299 70.9179
2240.000000 83.507 71.9215
2270.000000 83.666 72.6185
2300.000000 83.827 73.2701
2330.000000 83.990 73.8749
2360.000000 84.158 74.4303
2400.000000 84.388 75.0786
2430.000000 84.564 75.4767
2470.000000 84.800 75.8721
2500.000000 84.976 76.0638
2540.000000 85.206 76.1811
2580.000000 85.427 76.1546
2620.000000 85.637 75.9771
2650.000000 85.784 75.7461
2690.000000 85.965 75.3238
2720.000000 86.086 74.9282
2760.000000 86.227 74.3155
2800.000000 86.342 73.6361
2850.000000 86.446 72.7283
2900.000000 86.504 71.8181
2950.000000 86.521 70.9789
3000.000000 86.500 70.2827
3040.000000 86.463 69.8627
3070.000000 86.428 69.6412
3110.000000 86.374 69.4772
3150.000000 86.318 69.4617
3200.000000 86.254 69.6334
3250.000000 86.204 69.9836
3300.000000 86.176 70.4612
3350.000000 86.173 71.0473
3400.000000 86.210 71.7458
3450.000000 86.310 72.4098
3500.000000 86.476 72.7573
3550.000000 86.678 72.5408
3600.000000 86.872 71.6450
3650.000000 87.014 70.1123
3700.000000 87.066 68.1240
3750.000000 87.010 65.9462
3820.000000 86.755 63.1072
3870.000000 86.471 61.5097
3950.000000 85.916 59.9564
4000.000000 85.544 59.6202
4060.000000 85.104 59.7829
4120.000000 84.692 60.4405
4180.000000 84.319 61.4580
4250.000000 83.941 62.9354
4310.000000 83.661 64.3503
4370.000000 83.419 65.8375
4440.000000 83.181 67.6100
4500.000000 83.010 69.1254
4550.000000 82.892 70.3612
4620.000000 82.759 72.0163
4680.000000 82.673 73.3363
4750.000000 82.601 74.7227
4820.000000 82.555 75.9068
4870.000000 82.535 76.6124
4940.000000 82.520 77.3879
5000.000000 82.516 77.8371
5080.000000 82.514 78.1078
5150.000000 82.506 78.0220
5220.000000 82.486 77.6380
5300.000000 82.435 76.8647
5380.000000 82.346 75.7975
5450.000000 82.230 74.6842
5520.000000 82.078 73.4802
5600.000000 81.864 72.0877
5700.000000 81.551 70.4303
5800.000000 81.211 68.9764
5900.000000 80.882 67.7802
6000.000000 80.603 66.8114
6080.000000 80.441 66.1325
6150.000000 80.357 65.5403
6220.000000 80.339 64.8976
6300.000000 80.411 64.0262
6400.000000 80.656 62.5595
6500.000000 81.089 60.4275
6600.000000 81.712 57.3271
6700.000000 82.499 52.9056
6800.000000 83.386 46.7977
6900.000000 84.265 38.7698
7000.000000 85.003 28.9491
7100.000000 85.487 18.0088
7200.000000 85.681 7.0458
7300.000000 85.635 -2.8981
7400.000000 85.470 -11.3043
7500.000000 85.311 -18.3406
7620.000000 85.217 -25.8185
7750.000000 85.205 -33.9145
7880.000000 85.132 -42.8893
8000.000000 84.819 -51.9002
8120.000000 84.140 -60.5830
8250.000000 82.986 -68.0118
8380.000000 81.535 -72.2737
8500.000000 80.102 -73.3043
8620.000000 78.700 -71.9730
8750.000000 77.289 -68.4200
8850.000000 76.301 -64.4918
9000.000000 74.983 -56.9849
9120.000000 74.069 -49.5745
9250.000000 73.304 -40.0771
9380.000000 72.867 -30.0146
9500.000000 72.682 -20.7216
9620.000000 72.694 -11.3261
9750.000000 72.984 -1.2458
9880.000000 73.597 8.0117
10000.000000 74.372 14.9240
10150.000000 75.379 20.6090
10300.000000 76.155 23.4806
10440.000000 76.571 25.1485
10600.000000 76.780 27.5251
10750.000000 76.869 30.7456
10900.000000 76.968 34.7839
11060.000000 77.152 39.5782
11200.000000 77.404 43.8130
11380.000000 77.849 48.8531
11500.000000 78.207 51.7408
11720.000000 78.925 55.5826
11800.000000 79.181 56.4305
12060.000000 79.846 57.1390
12200.000000 80.028 56.4923
12410.000000 80.011 55.0723
12500.000000 79.902 54.5663
12650.000000 79.606 54.1524
12800.000000 79.210 54.4529
13150.000000 78.145 58.0848
13200.000000 77.998 58.8787
13400.000000 77.459 62.5020
13600.000000 77.013 66.5795
13800.000000 76.661 70.8133
14000.000000 76.397 74.9547
14300.000000 76.149 80.5874
14500.000000 76.067 83.6824
14750.000000 76.012 86.4659
15000.000000 75.921 87.8752
15250.000000 75.688 88.1672
15500.000000 75.241 88.3752
15750.000000 74.713 89.7973
16000.000000 74.453 91.4654
16250.000000 74.344 90.3281
16500.000000 73.883 87.2687
16750.000000 73.084 85.3733
17000.000000 72.279 85.1621
17250.000000 71.678 85.4309
17500.000000 71.296 84.9113
17750.000000 71.031 82.9029
18000.000000 70.761 79.4865
18250.000000 70.462 75.3039
18500.000000 70.241 70.6909
18750.000000 70.251 65.0774
19000.000000 70.561 57.1613
19250.000000 71.111 45.4032
19500.000000 71.716 28.6421
19750.000000 72.136 8.6529
