* Measurement data measured by REW V5.20.9
* Source: Headset (USB-C to 3.5mm Headphone Jack Adapter), MICROPHONE (Master Volume), L, volume: 0.260. Timing signal peak level -26.9 dBFS, measurement signal peak level -26.8 dBFS
* Format: 256k Log Swept Sine, 1 sweep at -12.0 dBFS using an acoustic timing reference
* Dated: 18/02/2024 2:11:27 PM
* REW Settings:
*  C-weighting compensation: Off
*  Target level: 75.0 dB
* Note: ; Delay -0.0801 ms (-27 mm, -1.08 in) using estimated IR delay relative to Acoustic reference on SPEAKER R with no timing offset
* Measurement: Trio 1000 R
* Smoothing: 1/24 octave
* Frequency Step: 1/48 octave
* Start Frequency: 1.000 Hz
*
* Freq(Hz) SPL(dB) Phase(degrees)
1.000000 36.688 131.2080
1.015000 36.689 130.1236
1.030000 36.694 129.0515
1.044000 36.702 128.0642
1.060000 36.715 126.9549
1.075000 36.731 125.9361
1.090000 36.752 124.9407
1.106000 36.779 123.9051
1.120000 36.805 123.0070
1.138000 36.843 121.8589
1.150000 36.871 121.0976
1.172000 36.926 119.7105
1.180000 36.948 119.2088
1.206000 37.023 117.5883
1.220000 37.067 116.7220
1.241000 37.137 115.4308
1.250000 37.169 114.8805
1.265000 37.223 113.9672
1.280000 37.281 113.0590
1.315000 37.424 110.9590
1.320000 37.445 110.6611
1.340000 37.534 109.4754
1.360000 37.626 108.2983
1.380000 37.723 107.1298
1.400000 37.823 105.9700
1.430000 37.981 104.2462
1.450000 38.091 103.1076
1.475000 38.234 101.6946
1.500000 38.385 100.2794
1.525000 38.545 98.8626
1.550000 38.714 97.4485
1.575000 38.890 96.0414
1.600000 39.072 94.6459
1.625000 39.261 93.2662
1.650000 39.454 91.9068
1.675000 39.653 90.5720
1.700000 39.855 89.2661
1.725000 40.061 87.9936
1.750000 40.268 86.7589
1.775000 40.478 85.5662
1.800000 40.689 84.4200
1.825000 40.900 83.3247
1.850000 41.113 82.2839
1.875000 41.330 81.2954
1.900000 41.553 80.3551
1.925000 41.779 79.4588
1.950000 42.009 78.6022
1.975000 42.242 77.7810
2.000000 42.478 76.9911
2.030000 42.763 76.0784
2.060000 43.050 75.1972
2.090000 43.337 74.3403
2.120000 43.624 73.5002
2.140000 43.815 72.9459
2.180000 44.194 71.8413
2.200000 44.381 71.2869
2.240000 44.756 70.2078
2.270000 45.039 69.4329
2.300000 45.323 68.6838
2.330000 45.608 67.9574
2.360000 45.892 67.2503
2.400000 46.271 66.3319
2.430000 46.554 65.6572
2.470000 46.929 64.7700
2.500000 47.208 64.1097
2.540000 47.576 63.2300
2.580000 47.939 62.3467
2.620000 48.299 61.4784
2.650000 48.568 60.8389
2.690000 48.925 59.9995
2.720000 49.191 59.3782
2.760000 49.542 58.5585
2.800000 49.890 57.7460
2.850000 50.318 56.7359
2.900000 50.739 55.7267
2.950000 51.152 54.7143
3.000000 51.559 53.7111
3.040000 51.879 52.9154
3.070000 52.117 52.3215
3.110000 52.430 51.5320
3.150000 52.738 50.7435
3.200000 53.117 49.7564
3.250000 53.489 48.7644
3.300000 53.853 47.7639
3.350000 54.210 46.7518
3.400000 54.559 45.7308
3.450000 54.900 44.7052
3.500000 55.235 43.6794
3.550000 55.562 42.6576
3.600000 55.883 41.6442
3.650000 56.197 40.6437
3.700000 56.504 39.6572
3.750000 56.803 38.6792
3.820000 57.211 37.3232
3.870000 57.494 36.3634
3.950000 57.934 34.8418
4.000000 58.202 33.8988
4.060000 58.517 32.7738
4.120000 58.822 31.6518
4.180000 59.118 30.5368
4.250000 59.453 29.2512
4.310000 59.733 28.1679
4.370000 60.006 27.1070
4.440000 60.318 25.9015
4.500000 60.577 24.8915
4.550000 60.788 24.0648
4.620000 61.075 22.9292
4.680000 61.316 21.9744
4.750000 61.592 20.8807
4.820000 61.862 19.8084
4.870000 62.050 19.0567
4.940000 62.308 18.0241
5.000000 62.524 17.1569
5.080000 62.807 16.0257
5.150000 63.052 15.0593
5.220000 63.291 14.1184
5.300000 63.559 13.0716
5.380000 63.821 12.0501
5.450000 64.048 11.1725
5.520000 64.272 10.3071
5.600000 64.524 9.3396
5.700000 64.834 8.1594
5.800000 65.138 7.0029
5.900000 65.438 5.8623
6.000000 65.734 4.7438
6.080000 65.967 3.8630
6.150000 66.168 3.0995
6.220000 66.368 2.3405
6.300000 66.594 1.4798
6.400000 66.872 0.4169
6.500000 67.147 -0.6369
6.600000 67.418 -1.6872
6.700000 67.685 -2.7331
6.800000 67.948 -3.7735
6.900000 68.208 -4.8109
7.000000 68.463 -5.8475
7.100000 68.714 -6.8814
7.200000 68.962 -7.9137
7.300000 69.205 -8.9461
7.400000 69.443 -9.9802
7.500000 69.677 -11.0154
7.620000 69.952 -12.2562
7.750000 70.241 -13.5958
7.880000 70.522 -14.9343
8.000000 70.773 -16.1611
8.120000 71.016 -17.3732
8.250000 71.271 -18.6756
8.380000 71.516 -19.9546
8.500000 71.736 -21.1057
8.620000 71.948 -22.2335
8.750000 72.172 -23.4213
8.850000 72.340 -24.3056
9.000000 72.585 -25.5876
9.120000 72.777 -26.5778
9.250000 72.983 -27.6140
9.380000 73.186 -28.6115
9.500000 73.373 -29.5113
9.620000 73.559 -30.3945
9.750000 73.759 -31.3289
9.880000 73.959 -32.2590
10.000000 74.142 -33.1195
10.150000 74.369 -34.1930
10.300000 74.591 -35.2783
10.440000 74.794 -36.3051
10.600000 75.018 -37.4844
10.750000 75.220 -38.5952
10.900000 75.413 -39.7063
11.060000 75.608 -40.8646
11.200000 75.770 -41.8607
11.380000 75.969 -43.0890
11.500000 76.096 -43.8691
11.720000 76.321 -45.2216
11.800000 76.402 -45.6844
12.060000 76.662 -47.0975
12.200000 76.806 -47.8174
12.410000 77.023 -48.8542
12.500000 77.118 -49.3009
12.650000 77.279 -50.0401
12.800000 77.441 -50.7918
13.150000 77.816 -52.6420
13.200000 77.868 -52.9160
13.400000 78.072 -54.0429
13.600000 78.265 -55.1866
13.800000 78.447 -56.3406
14.000000 78.618 -57.4677
14.300000 78.857 -59.0891
14.500000 79.008 -60.1012
14.750000 79.195 -61.2998
15.000000 79.382 -62.4332
15.250000 79.571 -63.5361
15.500000 79.761 -64.6354
15.750000 79.949 -65.7445
16.000000 80.133 -66.8731
16.250000 80.309 -68.0063
16.500000 80.477 -69.1331
16.750000 80.636 -70.2353
17.000000 80.788 -71.3020
17.250000 80.936 -72.3332
17.500000 81.080 -73.3314
17.750000 81.223 -74.3110
18.000000 81.363 -75.2798
18.250000 81.500 -76.2463
18.500000 81.631 -77.2124
18.750000 81.757 -78.1722
19.000000 81.877 -79.1202
19.250000 81.991 -80.0435
19.500000 82.101 -80.9385
19.750000 82.208 -81.8029
20.000000 82.315 -82.6425
20.299999 82.445 -83.6363
20.600000 82.576 -84.6358
20.900000 82.706 -85.6597
21.200001 82.831 -86.7149
21.400000 82.911 -87.4275
21.799999 83.058 -88.8448
22.000000 83.128 -89.5343
22.400000 83.262 -90.8525
22.700001 83.363 -91.7963
23.000000 83.468 -92.7283
23.299999 83.573 -93.6746
23.600000 83.674 -94.6398
24.000000 83.795 -95.9276
24.299999 83.874 -96.8444
24.700001 83.971 -97.9402
25.000000 84.045 -98.6582
25.400000 84.156 -99.5242
25.799999 84.280 -100.3846
26.200001 84.408 -101.3109
26.500000 84.499 -102.0464
26.900000 84.607 -103.0422
27.200001 84.680 -103.7756
27.600000 84.772 -104.7367
28.000000 84.858 -105.7184
28.500000 84.944 -107.0040
29.000000 84.993 -108.2325
29.500000 85.021 -109.1888
30.000000 85.082 -109.8246
30.400000 85.186 -110.3044
30.700001 85.299 -110.8179
31.100000 85.469 -111.9068
31.500000 85.616 -113.5156
32.000000 85.695 -116.0035
32.500000 85.622 -118.3194
33.000000 85.456 -119.6371
33.500000 85.335 -119.7095
34.000000 85.391 -119.1598
34.500000 85.618 -119.0195
35.000000 85.892 -119.7986
35.500000 86.099 -121.2171
36.000000 86.221 -122.6687
36.500000 86.307 -123.8525
37.000000 86.394 -124.8746
37.500000 86.477 -125.9209
38.200001 86.547 -127.3585
38.700001 86.574 -128.1857
39.500000 86.639 -129.2617
40.000000 86.691 -129.9829
40.599998 86.746 -130.9333
41.200001 86.790 -131.8849
41.799999 86.832 -132.8264
42.500000 86.877 -133.9466
43.099998 86.909 -134.8852
43.700001 86.939 -135.7641
44.400002 86.980 -136.7363
45.000000 87.021 -137.5589
45.500000 87.056 -138.2528
46.200001 87.101 -139.2395
46.799999 87.133 -140.0720
47.500000 87.172 -141.0210
48.200001 87.209 -142.0318
48.700001 87.223 -142.7966
49.400002 87.220 -143.7722
50.000000 87.217 -144.4119
50.799999 87.255 -145.1761
51.500000 87.308 -146.0249
52.200001 87.343 -146.9823
53.000000 87.365 -147.9796
53.799999 87.391 -148.8810
54.500000 87.414 -149.6634
55.200001 87.433 -150.4326
56.000000 87.450 -151.2995
57.000000 87.461 -152.3689
58.000000 87.466 -153.3837
59.000000 87.474 -154.4106
60.000000 87.475 -155.4519
60.799999 87.476 -156.2497
61.500000 87.481 -156.9387
62.200001 87.486 -157.6418
63.000000 87.489 -158.4442
64.000000 87.487 -159.4014
65.000000 87.484 -160.3366
66.000000 87.471 -161.2424
67.000000 87.456 -162.0983
68.000000 87.438 -162.9555
69.000000 87.416 -163.8130
70.000000 87.388 -164.6538
71.000000 87.361 -165.4566
72.000000 87.339 -166.2476
73.000000 87.318 -167.0646
74.000000 87.291 -167.8658
75.000000 87.258 -168.6131
76.199997 87.213 -169.4199
77.500000 87.159 -170.2190
78.800003 87.092 -171.0082
80.000000 87.015 -171.7206
81.199997 86.927 -172.4303
82.500000 86.819 -173.0420
83.800003 86.746 -173.3740
85.000000 86.723 -173.5185
86.199997 86.753 -173.4839
87.500000 86.840 -173.5500
88.500000 86.897 -173.8270
90.000000 86.918 -174.3859
91.199997 86.905 -174.9702
92.500000 86.854 -175.9420
93.800003 86.786 -177.0367
95.000000 86.754 -178.1570
96.199997 86.752 -179.2810
97.500000 86.800 179.6367
98.800003 86.862 178.3691
100.000000 86.776 177.3171
101.500000 86.577 177.6988
103.000000 86.519 178.3798
104.400002 86.479 178.3455
106.000000 86.419 177.8535
107.500000 86.383 177.1947
109.000000 86.370 176.4082
110.599998 86.346 175.5776
112.000000 86.304 174.9399
113.800003 86.223 174.2037
115.000000 86.163 173.7188
117.199997 86.060 172.7889
118.000000 86.024 172.4662
120.599998 85.907 171.5848
122.000000 85.837 171.1743
124.099998 85.721 170.5807
125.000000 85.670 170.3239
126.500000 85.590 169.8956
128.000000 85.513 169.4886
131.500000 85.328 168.7258
132.000000 85.299 168.6358
134.000000 85.178 168.3710
136.000000 85.075 168.2126
138.000000 84.987 168.0497
140.000000 84.907 167.9046
143.000000 84.800 167.6818
145.000000 84.743 167.4804
147.500000 84.684 167.1406
150.000000 84.615 166.7033
152.500000 84.513 166.3199
155.000000 84.404 165.9911
157.500000 84.297 165.6321
160.000000 84.193 165.3081
162.500000 84.089 165.0536
165.000000 83.985 164.8398
167.500000 83.875 164.6255
170.000000 83.757 164.4506
172.500000 83.640 164.3362
175.000000 83.528 164.2689
177.500000 83.417 164.2291
180.000000 83.307 164.2109
182.500000 83.198 164.2107
185.000000 83.088 164.2399
187.500000 82.980 164.2946
190.000000 82.872 164.3792
192.500000 82.765 164.5154
195.000000 82.656 164.7072
197.500000 82.546 164.9807
200.000000 82.443 165.3652
203.000000 82.332 165.9372
206.000000 82.240 166.6343
209.000000 82.198 167.3125
212.000000 82.201 167.7830
214.000000 82.208 167.9536
218.000000 82.191 168.0125
220.000000 82.164 167.9669
224.000000 82.089 167.8712
227.000000 82.020 167.8694
230.000000 81.945 167.9499
233.000000 81.871 168.0939
236.000000 81.799 168.2717
240.000000 81.704 168.5312
243.000000 81.634 168.7434
247.000000 81.544 169.0288
250.000000 81.479 169.2758
254.000000 81.403 169.6691
258.000000 81.327 170.0661
262.000000 81.256 170.4419
265.000000 81.204 170.7225
269.000000 81.135 171.1187
272.000000 81.087 171.4251
276.000000 81.027 171.8323
280.000000 80.967 172.2292
285.000000 80.897 172.7227
290.000000 80.834 173.2278
295.000000 80.776 173.7352
300.000000 80.718 174.2340
304.000000 80.675 174.6349
307.000000 80.643 174.9400
311.000000 80.601 175.3422
315.000000 80.561 175.7388
320.000000 80.513 176.2231
325.000000 80.469 176.6916
330.000000 80.427 177.1700
335.000000 80.387 177.6572
340.000000 80.350 178.1387
345.000000 80.315 178.6207
350.000000 80.281 179.0972
355.000000 80.248 179.5351
360.000000 80.217 179.9699
365.000000 80.187 -179.5880
370.000000 80.157 -179.1413
375.000000 80.128 -178.6910
382.000000 80.089 -178.0884
387.000000 80.065 -177.6678
395.000000 80.027 -176.9945
400.000000 80.003 -176.5865
406.000000 79.975 -176.0841
412.000000 79.948 -175.5636
418.000000 79.922 -175.0505
425.000000 79.894 -174.4697
431.000000 79.870 -173.9747
437.000000 79.846 -173.4917
444.000000 79.826 -172.9448
450.000000 79.809 -172.4682
455.000000 79.789 -172.0608
462.000000 79.761 -171.4927
468.000000 79.740 -171.0129
475.000000 79.717 -170.4626
482.000000 79.696 -169.9191
487.000000 79.681 -169.5285
494.000000 79.660 -168.9774
500.000000 79.642 -168.4997
508.000000 79.619 -167.8710
515.000000 79.600 -167.3264
522.000000 79.582 -166.7737
530.000000 79.563 -166.1436
538.000000 79.546 -165.5228
545.000000 79.534 -164.9754
552.000000 79.522 -164.4200
560.000000 79.502 -163.7809
570.000000 79.481 -162.9837
580.000000 79.464 -162.1908
590.000000 79.448 -161.3934
600.000000 79.433 -160.5834
608.000000 79.423 -159.9336
615.000000 79.415 -159.3671
622.000000 79.407 -158.8012
630.000000 79.400 -158.1535
640.000000 79.392 -157.3276
650.000000 79.386 -156.4877
660.000000 79.384 -155.6845
670.000000 79.384 -154.8715
680.000000 79.385 -154.0383
690.000000 79.388 -153.2021
700.000000 79.394 -152.3676
710.000000 79.402 -151.5301
720.000000 79.412 -150.6901
730.000000 79.424 -149.8489
740.000000 79.441 -149.0008
750.000000 79.461 -148.1544
762.000000 79.486 -147.1605
775.000000 79.518 -146.0843
788.000000 79.560 -145.0109
800.000000 79.603 -144.0358
812.000000 79.652 -143.0963
825.000000 79.710 -142.1406
838.000000 79.771 -141.2790
850.000000 79.815 -140.6028
862.000000 79.827 -139.9521
875.000000 79.812 -138.9482
885.000000 79.823 -137.9037
900.000000 79.911 -136.3521
912.000000 80.004 -135.3526
925.000000 80.099 -134.4625
938.000000 80.179 -133.6527
950.000000 80.243 -132.8902
962.000000 80.307 -132.0780
975.000000 80.385 -131.1636
988.000000 80.470 -130.2587
1000.000000 80.555 -129.4559
1015.000000 80.667 -128.5133
1030.000000 80.783 -127.6391
1044.000000 80.893 -126.8701
1060.000000 81.018 -126.0555
1075.000000 81.133 -125.3549
1090.000000 81.247 -124.6974
1106.000000 81.366 -124.0334
1120.000000 81.468 -123.4835
1138.000000 81.594 -122.8273
1150.000000 81.676 -122.4164
1172.000000 81.822 -121.6960
1180.000000 81.874 -121.4414
1206.000000 82.035 -120.6525
1220.000000 82.117 -120.2499
1241.000000 82.233 -119.6589
1250.000000 82.281 -119.4092
1265.000000 82.361 -119.0021
1280.000000 82.439 -118.6009
1315.000000 82.608 -117.6621
1320.000000 82.631 -117.5287
1340.000000 82.722 -116.9955
1360.000000 82.810 -116.4591
1380.000000 82.896 -115.9181
1400.000000 82.979 -115.3711
1430.000000 83.102 -114.5339
1450.000000 83.182 -113.9752
1475.000000 83.282 -113.2708
1500.000000 83.381 -112.5531
1525.000000 83.480 -111.8273
1550.000000 83.580 -111.1016
1575.000000 83.681 -110.3765
1600.000000 83.782 -109.6443
1625.000000 83.884 -108.9097
1650.000000 83.988 -108.1809
1675.000000 84.094 -107.4521
1700.000000 84.202 -106.7259
1725.000000 84.312 -106.0160
1750.000000 84.424 -105.3191
1775.000000 84.538 -104.6230
1800.000000 84.653 -103.9371
1825.000000 84.771 -103.2711
1850.000000 84.891 -102.6210
1875.000000 85.013 -101.9815
1900.000000 85.136 -101.3600
1925.000000 85.262 -100.7592
1950.000000 85.391 -100.1799
1975.000000 85.521 -99.6193
2000.000000 85.652 -99.0836
2030.000000 85.811 -98.4746
2060.000000 85.973 -97.9021
2090.000000 86.137 -97.3692
2120.000000 86.302 -96.8812
2140.000000 86.412 -96.5821
2180.000000 86.636 -96.0442
2200.000000 86.748 -95.8083
2240.000000 86.972 -95.4045
2270.000000 87.140 -95.1602
2300.000000 87.307 -94.9707
2330.000000 87.473 -94.8375
2360.000000 87.638 -94.7577
2400.000000 87.854 -94.7361
2430.000000 88.013 -94.7885
2470.000000 88.220 -94.9527
2500.000000 88.371 -95.1450
2540.000000 88.563 -95.4902
2580.000000 88.743 -95.9395
2620.000000 88.911 -96.4966
2650.000000 89.029 -96.9790
2690.000000 89.170 -97.6963
2720.000000 89.264 -98.2874
2760.000000 89.372 -99.1474
2800.000000 89.457 -100.0793
2850.000000 89.529 -101.3005
2900.000000 89.558 -102.5413
2950.000000 89.546 -103.7543
3000.000000 89.494 -104.8819
3040.000000 89.427 -105.6917
3070.000000 89.364 -106.2326
3110.000000 89.265 -106.8589
3150.000000 89.152 -107.3718
3200.000000 88.996 -107.8450
3250.000000 88.830 -108.1314
3300.000000 88.657 -108.2464
3350.000000 88.483 -108.2061
3400.000000 88.307 -108.0242
3450.000000 88.132 -107.7171
3500.000000 87.958 -107.2922
3550.000000 87.788 -106.7598
3600.000000 87.622 -106.1315
3650.000000 87.462 -105.4196
3700.000000 87.306 -104.6343
3750.000000 87.157 -103.7802
3820.000000 86.957 -102.4765
3870.000000 86.823 -101.4775
3950.000000 86.622 -99.7791
4000.000000 86.505 -98.6649
4060.000000 86.373 -97.2824
4120.000000 86.252 -95.8638
4180.000000 86.140 -94.4212
4250.000000 86.022 -92.7063
4310.000000 85.929 -91.2141
4370.000000 85.844 -89.7100
4440.000000 85.755 -87.9528
4500.000000 85.686 -86.4487
4550.000000 85.635 -85.1959
4620.000000 85.569 -83.4429
4680.000000 85.519 -81.9442
4750.000000 85.468 -80.2092
4820.000000 85.423 -78.4904
4870.000000 85.394 -77.2702
4940.000000 85.357 -75.5716
5000.000000 85.330 -74.1286
5080.000000 85.299 -72.2185
5150.000000 85.276 -70.5579
5220.000000 85.256 -68.9161
5300.000000 85.239 -67.0767
5380.000000 85.226 -65.2786
5450.000000 85.217 -63.7364
5520.000000 85.208 -62.2233
5600.000000 85.197 -60.5250
5700.000000 85.183 -58.4374
5800.000000 85.167 -56.3781
5900.000000 85.150 -54.3291
6000.000000 85.132 -52.2903
6080.000000 85.118 -50.6601
6150.000000 85.105 -49.2224
6220.000000 85.092 -47.7735
6300.000000 85.079 -46.1043
6400.000000 85.065 -43.9992
6500.000000 85.057 -41.8680
6600.000000 85.054 -39.7035
6700.000000 85.060 -37.4934
6800.000000 85.077 -35.2367
6900.000000 85.108 -32.9300
7000.000000 85.159 -30.5724
7100.000000 85.236 -28.1907
7200.000000 85.343 -25.8252
7300.000000 85.484 -23.5238
7400.000000 85.656 -21.3213
7500.000000 85.861 -19.2331
7620.000000 86.158 -16.9184
7750.000000 86.549 -14.7464
7880.000000 87.017 -13.0819
8000.000000 87.520 -12.2010
8120.000000 88.079 -12.1969
8250.000000 88.711 -13.4989
8380.000000 89.301 -16.4764
8500.000000 89.718 -20.8412
8620.000000 89.915 -26.5525
8750.000000 89.793 -33.5537
8850.000000 89.444 -38.8415
9000.000000 88.558 -45.5104
9120.000000 87.626 -49.2190
9250.000000 86.504 -51.4927
9380.000000 85.352 -52.1523
9500.000000 84.312 -51.5923
9620.000000 83.323 -50.1395
9750.000000 82.325 -47.7694
9880.000000 81.410 -44.7549
10000.000000 80.640 -41.5452
10150.000000 79.779 -37.1171
10300.000000 79.027 -32.3676
10440.000000 78.415 -27.7507
10600.000000 77.818 -22.3358
10750.000000 77.356 -17.2126
10900.000000 76.986 -12.1595
11060.000000 76.691 -6.9646
11200.000000 76.505 -2.6676
11380.000000 76.347 2.4065
11500.000000 76.283 5.4801
11720.000000 76.225 10.4553
11800.000000 76.217 12.0413
12060.000000 76.207 16.3891
12200.000000 76.198 18.2766
12410.000000 76.181 20.6436
12500.000000 76.175 21.4968
12650.000000 76.172 22.6507
12800.000000 76.175 23.3724
13150.000000 76.097 22.9978
13200.000000 76.063 22.7229
13400.000000 75.831 21.2620
13600.000000 75.435 19.6033
13800.000000 74.885 18.2370
14000.000000 74.223 17.5202
14300.000000 73.147 17.9303
14500.000000 72.462 19.0835
14750.000000 71.716 21.1924
15000.000000 71.144 23.6853
15250.000000 70.777 26.0928
15500.000000 70.654 27.9222
15750.000000 70.798 28.5955
16000.000000 71.222 27.2302
16250.000000 71.864 22.4595
16500.000000 72.484 12.5946
16750.000000 72.633 -2.8902
17000.000000 71.898 -21.3368
17250.000000 70.221 -38.0264
17500.000000 67.914 -50.2821
17750.000000 65.407 -58.4479
18000.000000 63.004 -64.1134
18250.000000 60.831 -68.7260
18500.000000 58.911 -73.2680
18750.000000 57.211 -78.5267
19000.000000 55.668 -85.2782
19250.000000 54.195 -94.1076
19500.000000 52.680 -104.9323
19750.000000 51.089 -116.4086
