* Measurement data measured by REW V5.20.9
* Source: Headset (USB-C to 3.5mm Headphone Jack Adapter), MICROPHONE (Master Volume), L, volume: 0.260. Timing signal peak level -23.9 dBFS, measurement signal peak level -23.8 dBFS
* Format: 256k Log Swept Sine, 1 sweep at -12.0 dBFS using an acoustic timing reference
* Dated: 18/02/2024 2:15:17 PM
* REW Settings:
*  C-weighting compensation: Off
*  Target level: 75.0 dB
* Note: ; Delay -0.0791 ms (-27 mm, -1.07 in) using estimated IR delay relative to Acoustic reference on SPEAKER R with no timing offset
* Measurement: Trio 0001 R
* Smoothing: 1/24 octave
* Frequency Step: 1/48 octave
* Start Frequency: 1.000 Hz
*
* Freq(Hz) SPL(dB) Phase(degrees)
1.000000 35.700 165.6683
1.015000 35.658 165.3268
1.030000 35.619 164.9706
1.044000 35.586 164.6241
1.060000 35.552 164.2106
1.075000 35.526 163.8050
1.090000 35.503 163.3813
1.106000 35.485 162.9099
1.120000 35.471 162.4893
1.138000 35.456 161.9389
1.150000 35.447 161.5653
1.172000 35.434 160.8651
1.180000 35.430 160.6053
1.206000 35.423 159.7394
1.220000 35.421 159.2588
1.241000 35.424 158.5170
1.250000 35.426 158.1911
1.265000 35.432 157.6366
1.280000 35.441 157.0672
1.315000 35.473 155.6767
1.320000 35.479 155.4706
1.340000 35.506 154.6263
1.360000 35.538 153.7488
1.380000 35.577 152.8364
1.400000 35.622 151.8872
1.430000 35.701 150.3907
1.450000 35.762 149.3419
1.475000 35.848 147.9673
1.500000 35.943 146.4993
1.525000 36.048 144.9417
1.550000 36.163 143.3053
1.575000 36.286 141.6008
1.600000 36.418 139.8391
1.625000 36.560 138.0309
1.650000 36.710 136.1870
1.675000 36.868 134.3180
1.700000 37.036 132.4348
1.725000 37.211 130.5482
1.750000 37.395 128.6687
1.775000 37.587 126.8074
1.800000 37.787 124.9748
1.825000 37.994 123.1817
1.850000 38.212 121.4156
1.875000 38.444 119.6292
1.900000 38.690 117.8258
1.925000 38.948 116.0108
1.950000 39.215 114.1899
1.975000 39.491 112.3687
2.000000 39.774 110.5528
2.030000 40.121 108.3885
2.060000 40.472 106.2495
2.090000 40.826 104.1454
2.120000 41.179 102.0859
2.140000 41.413 100.7425
2.180000 41.873 98.1393
2.200000 42.097 96.8853
2.240000 42.549 94.4497
2.270000 42.892 92.6759
2.300000 43.238 90.9452
2.330000 43.585 89.2555
2.360000 43.933 87.6050
2.400000 44.396 85.4618
2.430000 44.740 83.8949
2.470000 45.194 81.8559
2.500000 45.528 80.3619
2.540000 45.964 78.4128
2.580000 46.386 76.5116
2.620000 46.801 74.6780
2.650000 47.108 73.3472
2.690000 47.510 71.6268
2.720000 47.808 70.3735
2.760000 48.198 68.7465
2.800000 48.581 67.1638
2.850000 49.048 65.2382
2.900000 49.503 63.3592
2.950000 49.944 61.5181
3.000000 50.371 59.7400
3.040000 50.703 58.3641
3.070000 50.947 57.3571
3.110000 51.265 56.0450
3.150000 51.576 54.7645
3.200000 51.956 53.2034
3.250000 52.325 51.6797
3.300000 52.685 50.1869
3.350000 53.035 48.7320
3.400000 53.372 47.3215
3.450000 53.699 45.9528
3.500000 54.017 44.6236
3.550000 54.325 43.3312
3.600000 54.627 42.0734
3.650000 54.921 40.8475
3.700000 55.209 39.6550
3.750000 55.488 38.5022
3.820000 55.865 36.9500
3.870000 56.125 35.8810
3.950000 56.529 34.2309
4.000000 56.776 33.2325
4.060000 57.066 32.0654
4.120000 57.348 30.9418
4.180000 57.621 29.8599
4.250000 57.931 28.6445
4.310000 58.190 27.6381
4.370000 58.446 26.6597
4.440000 58.739 25.5539
4.500000 58.984 24.6461
4.550000 59.184 23.9145
4.620000 59.458 22.9218
4.680000 59.690 22.0942
4.750000 59.957 21.1479
4.820000 60.220 20.2236
4.870000 60.405 19.5833
4.940000 60.659 18.7099
5.000000 60.874 17.9784
5.080000 61.157 17.0200
5.150000 61.401 16.1915
5.220000 61.642 15.3799
5.300000 61.913 14.4728
5.380000 62.179 13.5814
5.450000 62.409 12.8092
5.520000 62.636 12.0407
5.600000 62.891 11.1722
5.700000 63.203 10.1011
5.800000 63.510 9.0418
5.900000 63.810 7.9907
6.000000 64.103 6.9490
6.080000 64.334 6.1230
6.150000 64.532 5.4058
6.220000 64.727 4.6936
6.300000 64.947 3.8858
6.400000 65.216 2.8852
6.500000 65.480 1.8951
6.600000 65.739 0.9159
6.700000 65.993 -0.0522
6.800000 66.241 -1.0095
6.900000 66.485 -1.9564
7.000000 66.725 -2.8931
7.100000 66.961 -3.8186
7.200000 67.193 -4.7343
7.300000 67.421 -5.6417
7.400000 67.646 -6.5415
7.500000 67.866 -7.4326
7.620000 68.127 -8.4921
7.750000 68.404 -9.6296
7.880000 68.675 -10.7560
8.000000 68.921 -11.7855
8.120000 69.161 -12.8056
8.250000 69.417 -13.9004
8.380000 69.667 -14.9824
8.500000 69.893 -15.9685
8.620000 70.115 -16.9434
8.750000 70.351 -17.9850
8.850000 70.529 -18.7748
9.000000 70.791 -19.9416
9.120000 70.997 -20.8600
9.250000 71.216 -21.8394
9.380000 71.432 -22.8028
9.500000 71.628 -23.6802
9.620000 71.821 -24.5470
9.750000 72.027 -25.4733
9.880000 72.230 -26.3898
10.000000 72.415 -27.2284
10.150000 72.641 -28.2655
10.300000 72.863 -29.2920
10.440000 73.065 -30.2415
10.600000 73.291 -31.3134
10.750000 73.497 -32.3047
10.900000 73.697 -33.2823
11.060000 73.906 -34.3044
11.200000 74.084 -35.1818
11.380000 74.307 -36.2840
11.500000 74.452 -37.0012
11.720000 74.713 -38.2838
11.800000 74.806 -38.7402
12.060000 75.104 -40.1904
12.200000 75.261 -40.9574
12.410000 75.494 -42.0914
12.500000 75.592 -42.5757
12.650000 75.754 -43.3792
12.800000 75.913 -44.1800
13.150000 76.270 -46.0439
13.200000 76.319 -46.3081
13.400000 76.512 -47.3616
13.600000 76.698 -48.3986
13.800000 76.877 -49.4157
14.000000 77.051 -50.4067
14.300000 77.305 -51.8428
14.500000 77.471 -52.7679
14.750000 77.677 -53.9018
15.000000 77.881 -55.0187
15.250000 78.084 -56.1369
15.500000 78.283 -57.2639
15.750000 78.478 -58.4020
16.000000 78.666 -59.5480
16.250000 78.846 -60.6874
16.500000 79.019 -61.8107
16.750000 79.184 -62.9040
17.000000 79.346 -63.9604
17.250000 79.504 -64.9810
17.500000 79.660 -65.9691
17.750000 79.815 -66.9380
18.000000 79.969 -67.8942
18.250000 80.120 -68.8454
18.500000 80.267 -69.7915
18.750000 80.408 -70.7251
19.000000 80.544 -71.6394
19.250000 80.674 -72.5206
19.500000 80.802 -73.3669
19.750000 80.928 -74.1776
20.000000 81.054 -74.9635
20.299999 81.206 -75.8970
20.600000 81.359 -76.8425
20.900000 81.507 -77.8172
21.200001 81.649 -78.8228
21.400000 81.737 -79.4995
21.799999 81.899 -80.8387
22.000000 81.974 -81.4870
22.400000 82.117 -82.7221
22.700001 82.224 -83.6009
23.000000 82.333 -84.4590
23.299999 82.444 -85.3192
23.600000 82.556 -86.1957
24.000000 82.703 -87.3986
24.299999 82.810 -88.3175
24.700001 82.944 -89.5383
25.000000 83.040 -90.4268
25.400000 83.166 -91.5498
25.799999 83.295 -92.5967
26.200001 83.433 -93.5957
26.500000 83.541 -94.3439
26.900000 83.688 -95.3687
27.200001 83.793 -96.1544
27.600000 83.920 -97.1847
28.000000 84.035 -98.1254
28.500000 84.174 -99.1166
29.000000 84.326 -99.9744
29.500000 84.493 -100.8539
30.000000 84.657 -101.8756
30.400000 84.774 -102.8288
30.700001 84.845 -103.6306
31.100000 84.903 -104.7908
31.500000 84.901 -105.9331
32.000000 84.809 -106.9165
32.500000 84.685 -106.8609
33.000000 84.696 -105.8033
33.500000 84.957 -104.7536
34.000000 85.381 -105.0460
34.500000 85.750 -107.0715
35.000000 85.925 -110.0426
35.500000 85.909 -112.7256
36.000000 85.818 -114.4663
36.500000 85.770 -115.4600
37.000000 85.798 -116.2948
37.500000 85.860 -117.2815
38.200001 85.934 -118.7305
38.700001 85.985 -119.6302
39.500000 86.090 -120.9685
40.000000 86.155 -121.8191
40.599998 86.223 -122.7942
41.200001 86.291 -123.7019
41.799999 86.360 -124.6162
42.500000 86.430 -125.7242
43.099998 86.479 -126.6542
43.700001 86.528 -127.5516
44.400002 86.587 -128.6058
45.000000 86.637 -129.5331
45.500000 86.675 -130.2974
46.200001 86.728 -131.3198
46.799999 86.777 -132.1605
47.500000 86.834 -133.1169
48.200001 86.890 -134.0067
48.700001 86.935 -134.6008
49.400002 87.008 -135.4768
50.000000 87.065 -136.3456
50.799999 87.105 -137.5597
51.500000 87.117 -138.4988
52.200001 87.133 -139.3488
53.000000 87.154 -140.3439
53.799999 87.168 -141.3314
54.500000 87.185 -142.1462
55.200001 87.209 -142.9702
56.000000 87.236 -143.9486
57.000000 87.262 -145.1253
58.000000 87.289 -146.2393
59.000000 87.313 -147.3499
60.000000 87.326 -148.4277
60.799999 87.333 -149.2508
61.500000 87.341 -149.9636
62.200001 87.349 -150.6933
63.000000 87.353 -151.5354
64.000000 87.353 -152.5479
65.000000 87.353 -153.5150
66.000000 87.352 -154.4473
67.000000 87.351 -155.3669
68.000000 87.344 -156.2906
69.000000 87.331 -157.2005
70.000000 87.313 -158.1072
71.000000 87.289 -159.0039
72.000000 87.259 -159.8602
73.000000 87.227 -160.6569
74.000000 87.197 -161.4054
75.000000 87.168 -162.1443
76.199997 87.124 -163.0609
77.500000 87.057 -164.0077
78.800003 86.978 -164.9106
80.000000 86.888 -165.6761
81.199997 86.787 -166.2474
82.500000 86.702 -166.6092
83.800003 86.643 -166.9830
85.000000 86.590 -167.1660
86.199997 86.580 -167.1818
87.500000 86.613 -167.2556
88.500000 86.665 -167.3723
90.000000 86.763 -167.9555
91.199997 86.809 -168.7610
92.500000 86.813 -169.8403
93.800003 86.784 -171.0051
95.000000 86.751 -172.1242
96.199997 86.733 -173.1711
97.500000 86.763 -174.2450
98.800003 86.817 -175.6259
100.000000 86.736 -176.9544
101.500000 86.521 -177.0368
103.000000 86.424 -176.4838
104.400002 86.365 -176.4467
106.000000 86.277 -176.8878
107.500000 86.190 -177.4736
109.000000 86.124 -178.0584
110.599998 86.076 -178.5957
112.000000 86.038 -179.0382
113.800003 85.970 -179.6751
115.000000 85.909 179.8733
117.199997 85.795 179.0293
118.000000 85.755 178.7324
120.599998 85.623 177.9514
122.000000 85.549 177.6126
124.099998 85.426 177.1028
125.000000 85.369 176.8859
126.500000 85.274 176.5458
128.000000 85.182 176.2468
131.500000 84.971 175.7629
132.000000 84.941 175.7202
134.000000 84.821 175.5787
136.000000 84.693 175.4871
138.000000 84.567 175.5289
140.000000 84.465 175.6738
143.000000 84.364 175.8751
145.000000 84.310 175.9322
147.500000 84.233 175.9040
150.000000 84.151 175.7448
152.500000 84.071 175.4075
155.000000 83.970 175.1386
157.500000 83.857 175.0526
160.000000 83.738 175.0551
162.500000 83.623 175.0978
165.000000 83.514 175.1805
167.500000 83.407 175.3018
170.000000 83.296 175.4399
172.500000 83.184 175.6226
175.000000 83.077 175.8600
177.500000 82.976 176.1328
180.000000 82.874 176.4343
182.500000 82.768 176.7801
185.000000 82.659 177.2018
187.500000 82.553 177.7155
190.000000 82.454 178.3249
192.500000 82.365 179.0402
195.000000 82.291 179.8704
197.500000 82.246 -179.2450
200.000000 82.241 -178.4087
203.000000 82.283 -177.5475
206.000000 82.346 -176.9438
209.000000 82.387 -176.6384
212.000000 82.394 -176.5040
214.000000 82.386 -176.4264
218.000000 82.353 -176.1807
220.000000 82.331 -176.0141
224.000000 82.284 -175.6453
227.000000 82.253 -175.3328
230.000000 82.223 -174.9838
233.000000 82.194 -174.6141
236.000000 82.170 -174.2309
240.000000 82.146 -173.7010
243.000000 82.133 -173.3035
247.000000 82.121 -172.7802
250.000000 82.113 -172.3990
254.000000 82.099 -171.9070
258.000000 82.090 -171.4136
262.000000 82.087 -170.9353
265.000000 82.086 -170.5972
269.000000 82.087 -170.1516
272.000000 82.088 -169.8175
276.000000 82.094 -169.3890
280.000000 82.101 -168.9837
285.000000 82.112 -168.4791
290.000000 82.124 -168.0000
295.000000 82.138 -167.5430
300.000000 82.154 -167.1001
304.000000 82.166 -166.7616
307.000000 82.175 -166.5190
311.000000 82.187 -166.2064
315.000000 82.201 -165.9008
320.000000 82.218 -165.5294
325.000000 82.234 -165.1792
330.000000 82.250 -164.8478
335.000000 82.266 -164.5153
340.000000 82.280 -164.1951
345.000000 82.293 -163.8928
350.000000 82.306 -163.5912
355.000000 82.322 -163.2916
360.000000 82.337 -163.0009
365.000000 82.350 -162.7196
370.000000 82.362 -162.4474
375.000000 82.373 -162.1822
382.000000 82.387 -161.8257
387.000000 82.396 -161.5817
395.000000 82.411 -161.1862
400.000000 82.419 -160.9296
406.000000 82.427 -160.6315
412.000000 82.434 -160.3433
418.000000 82.442 -160.0483
425.000000 82.449 -159.7053
431.000000 82.454 -159.4195
437.000000 82.458 -159.1281
444.000000 82.462 -158.7668
450.000000 82.464 -158.4582
455.000000 82.466 -158.2295
462.000000 82.468 -157.9116
468.000000 82.470 -157.6282
475.000000 82.473 -157.2932
482.000000 82.474 -156.9457
487.000000 82.473 -156.6913
494.000000 82.472 -156.3392
500.000000 82.471 -156.0411
508.000000 82.470 -155.6378
515.000000 82.468 -155.2773
522.000000 82.466 -154.9063
530.000000 82.464 -154.4755
538.000000 82.460 -154.0434
545.000000 82.458 -153.6505
552.000000 82.457 -153.2576
560.000000 82.455 -152.8271
570.000000 82.452 -152.2701
580.000000 82.447 -151.6995
590.000000 82.445 -151.1101
600.000000 82.444 -150.5123
608.000000 82.442 -150.0275
615.000000 82.441 -149.5968
622.000000 82.441 -149.1626
630.000000 82.442 -148.6612
640.000000 82.442 -148.0253
650.000000 82.442 -147.3779
660.000000 82.449 -146.7263
670.000000 82.456 -146.0612
680.000000 82.464 -145.3883
690.000000 82.472 -144.7121
700.000000 82.482 -144.0309
710.000000 82.496 -143.3378
720.000000 82.510 -142.6404
730.000000 82.527 -141.9399
740.000000 82.547 -141.2262
750.000000 82.570 -140.5061
762.000000 82.600 -139.6591
775.000000 82.638 -138.7466
788.000000 82.682 -137.8303
800.000000 82.728 -136.9943
812.000000 82.779 -136.1875
825.000000 82.839 -135.3744
838.000000 82.900 -134.6508
850.000000 82.945 -134.0905
862.000000 82.955 -133.5436
875.000000 82.940 -132.6363
885.000000 82.954 -131.6708
900.000000 83.045 -130.2579
912.000000 83.139 -129.3779
925.000000 83.232 -128.6069
938.000000 83.310 -127.8857
950.000000 83.374 -127.1875
962.000000 83.439 -126.4491
975.000000 83.518 -125.6292
988.000000 83.605 -124.8178
1000.000000 83.692 -124.0987
1015.000000 83.805 -123.2579
1030.000000 83.921 -122.4805
1044.000000 84.030 -121.8056
1060.000000 84.153 -121.0844
1075.000000 84.267 -120.4611
1090.000000 84.380 -119.8893
1106.000000 84.497 -119.3163
1120.000000 84.597 -118.8390
1138.000000 84.721 -118.2644
1150.000000 84.801 -117.9062
1172.000000 84.946 -117.2852
1180.000000 84.997 -117.0660
1206.000000 85.154 -116.3814
1220.000000 85.235 -116.0339
1241.000000 85.351 -115.5241
1250.000000 85.399 -115.3077
1265.000000 85.477 -114.9518
1280.000000 85.552 -114.5993
1315.000000 85.719 -113.7808
1320.000000 85.742 -113.6628
1340.000000 85.832 -113.1854
1360.000000 85.920 -112.7035
1380.000000 86.005 -112.2207
1400.000000 86.087 -111.7339
1430.000000 86.209 -110.9924
1450.000000 86.289 -110.4911
1475.000000 86.388 -109.8551
1500.000000 86.486 -109.2003
1525.000000 86.584 -108.5395
1550.000000 86.683 -107.8793
1575.000000 86.783 -107.2111
1600.000000 86.884 -106.5415
1625.000000 86.987 -105.8705
1650.000000 87.091 -105.2031
1675.000000 87.195 -104.5420
1700.000000 87.302 -103.8822
1725.000000 87.411 -103.2257
1750.000000 87.521 -102.5797
1775.000000 87.633 -101.9465
1800.000000 87.747 -101.3212
1825.000000 87.863 -100.7062
1850.000000 87.981 -100.1073
1875.000000 88.102 -99.5241
1900.000000 88.224 -98.9566
1925.000000 88.349 -98.4069
1950.000000 88.474 -97.8795
1975.000000 88.602 -97.3762
2000.000000 88.730 -96.8952
2030.000000 88.886 -96.3479
2060.000000 89.043 -95.8367
2090.000000 89.202 -95.3632
2120.000000 89.363 -94.9308
2140.000000 89.470 -94.6654
2180.000000 89.686 -94.1876
2200.000000 89.795 -93.9801
2240.000000 90.013 -93.6325
2270.000000 90.174 -93.4268
2300.000000 90.335 -93.2690
2330.000000 90.494 -93.1617
2360.000000 90.652 -93.1073
2400.000000 90.859 -93.1158
2430.000000 91.010 -93.1821
2470.000000 91.205 -93.3551
2500.000000 91.348 -93.5480
2540.000000 91.532 -93.8908
2580.000000 91.704 -94.3293
2620.000000 91.861 -94.8626
2650.000000 91.971 -95.3211
2690.000000 92.103 -95.9975
2720.000000 92.191 -96.5473
2760.000000 92.291 -97.3333
2800.000000 92.371 -98.1761
2850.000000 92.441 -99.2855
2900.000000 92.474 -100.4114
2950.000000 92.469 -101.5110
3000.000000 92.430 -102.5428
3040.000000 92.376 -103.2940
3070.000000 92.323 -103.8009
3110.000000 92.237 -104.3920
3150.000000 92.138 -104.8822
3200.000000 91.999 -105.3457
3250.000000 91.847 -105.6299
3300.000000 91.687 -105.7386
3350.000000 91.526 -105.6929
3400.000000 91.365 -105.5130
3450.000000 91.206 -105.2117
3500.000000 91.049 -104.8040
3550.000000 90.895 -104.3042
3600.000000 90.746 -103.7196
3650.000000 90.600 -103.0545
3700.000000 90.459 -102.3120
3750.000000 90.322 -101.5020
3820.000000 90.140 -100.2729
3870.000000 90.017 -99.3310
3950.000000 89.831 -97.7238
4000.000000 89.723 -96.6671
4060.000000 89.603 -95.3509
4120.000000 89.491 -93.9884
4180.000000 89.388 -92.5897
4250.000000 89.280 -90.9245
4310.000000 89.197 -89.4746
4370.000000 89.121 -88.0048
4440.000000 89.044 -86.2683
4500.000000 88.988 -84.7694
4550.000000 88.949 -83.5191
4620.000000 88.904 -81.7801
4680.000000 88.874 -80.3068
4750.000000 88.847 -78.6202
4820.000000 88.826 -76.9735
4870.000000 88.815 -75.8160
4940.000000 88.801 -74.2156
5000.000000 88.793 -72.8632
5080.000000 88.787 -71.0893
5150.000000 88.786 -69.5645
5220.000000 88.787 -68.0689
5300.000000 88.792 -66.3950
5380.000000 88.800 -64.7639
5450.000000 88.808 -63.3692
5520.000000 88.816 -61.9993
5600.000000 88.825 -60.4641
5700.000000 88.837 -58.5931
5800.000000 88.849 -56.7645
5900.000000 88.860 -54.9752
6000.000000 88.868 -53.2172
6080.000000 88.873 -51.8264
6150.000000 88.876 -50.6139
6220.000000 88.878 -49.3993
6300.000000 88.877 -48.0020
6400.000000 88.875 -46.2316
6500.000000 88.876 -44.4136
6600.000000 88.882 -42.5333
6700.000000 88.898 -40.5927
6800.000000 88.929 -38.6039
6900.000000 88.979 -36.5822
7000.000000 89.051 -34.5458
7100.000000 89.150 -32.5114
7200.000000 89.280 -30.5095
7300.000000 89.446 -28.5882
7400.000000 89.652 -26.7970
7500.000000 89.899 -25.1911
7620.000000 90.254 -23.6189
7750.000000 90.708 -22.5249
7880.000000 91.220 -22.2854
8000.000000 91.721 -23.0475
8120.000000 92.215 -24.9769
8250.000000 92.675 -28.5900
8380.000000 92.953 -33.7942
8500.000000 92.958 -39.6531
8620.000000 92.667 -45.8178
8750.000000 92.021 -51.8770
8850.000000 91.333 -55.5891
9000.000000 90.104 -59.2089
9120.000000 89.045 -60.4551
9250.000000 87.900 -60.3906
9380.000000 86.804 -59.1536
9500.000000 85.853 -57.2122
9620.000000 84.969 -54.6727
9750.000000 84.091 -51.3962
9880.000000 83.297 -47.7031
10000.000000 82.634 -44.0167
10150.000000 81.898 -39.1446
10300.000000 81.260 -34.0844
10440.000000 80.748 -29.2757
10600.000000 80.256 -23.7549
10750.000000 79.882 -18.6361
10900.000000 79.587 -13.6358
11060.000000 79.357 -8.5070
11200.000000 79.220 -4.2563
11380.000000 79.123 0.8055
11500.000000 79.099 3.8745
11720.000000 79.118 8.7969
11800.000000 79.137 10.3533
12060.000000 79.209 14.6282
12200.000000 79.248 16.5291
12410.000000 79.315 18.9539
12500.000000 79.354 19.8200
12650.000000 79.434 20.9468
12800.000000 79.524 21.5598
13150.000000 79.637 20.6170
13200.000000 79.626 20.2344
13400.000000 79.480 18.3254
13600.000000 79.156 16.2318
13800.000000 78.679 14.4815
14000.000000 78.100 13.4140
14300.000000 77.182 13.2762
14500.000000 76.625 13.9966
14750.000000 76.075 15.3898
15000.000000 75.738 16.8504
15250.000000 75.657 17.7846
15500.000000 75.869 17.3258
15750.000000 76.362 14.2230
16000.000000 76.976 6.7807
16250.000000 77.323 -6.3401
16500.000000 76.921 -23.9100
16750.000000 75.528 -41.4277
17000.000000 73.337 -54.8139
17250.000000 70.788 -63.4728
17500.000000 68.259 -68.8370
17750.000000 65.937 -72.3760
18000.000000 63.871 -75.2149
18250.000000 62.042 -78.1115
18500.000000 60.422 -81.6117
18750.000000 58.980 -86.2317
19000.000000 57.672 -92.5767
19250.000000 56.413 -101.1546
19500.000000 55.088 -111.8852
19750.000000 53.670 -123.1049
