* Measurement data measured by REW V5.20.9
* Source: Headset (USB-C to 3.5mm Headphone Jack Adapter), MICROPHONE (Master Volume), L, volume: 0.260. Timing signal peak level -26.6 dBFS, measurement signal peak level -26.7 dBFS
* Format: 256k Log Swept Sine, 1 sweep at -12.0 dBFS using an acoustic timing reference
* Dated: 18/02/2024 2:29:34 PM
* REW Settings:
*  C-weighting compensation: Off
*  Target level: 75.0 dB
* Note: ; Delay -0.0759 ms (-26 mm, -1.02 in) using estimated IR delay relative to Acoustic reference on SPEAKER L with no timing offset
* Measurement: Trio 1000 L
* Smoothing: 1/24 octave
* Frequency Step: 1/48 octave
* Start Frequency: 1.000 Hz
*
* Freq(Hz) SPL(dB) Phase(degrees)
1.000000 41.527 131.6257
1.015000 41.539 130.6744
1.030000 41.553 129.7366
1.044000 41.570 128.8757
1.060000 41.593 127.9116
1.075000 41.619 127.0294
1.090000 41.649 126.1708
1.106000 41.686 125.2821
1.120000 41.722 124.5194
1.138000 41.771 123.5556
1.150000 41.807 122.9227
1.172000 41.876 121.7809
1.180000 41.903 121.3711
1.206000 41.996 120.0573
1.220000 42.050 119.3600
1.241000 42.134 118.3252
1.250000 42.172 117.8853
1.265000 42.237 117.1562
1.280000 42.304 116.4313
1.315000 42.472 114.7514
1.320000 42.497 114.5123
1.340000 42.599 113.5562
1.360000 42.705 112.5996
1.380000 42.816 111.6402
1.400000 42.930 110.6758
1.430000 43.108 109.2154
1.450000 43.231 108.2292
1.475000 43.390 106.9788
1.500000 43.558 105.7087
1.525000 43.735 104.4231
1.550000 43.920 103.1259
1.575000 44.113 101.8213
1.600000 44.312 100.5133
1.625000 44.517 99.2061
1.650000 44.727 97.9038
1.675000 44.942 96.6104
1.700000 45.160 95.3302
1.725000 45.381 94.0671
1.750000 45.604 92.8253
1.775000 45.829 91.6089
1.800000 46.054 90.4219
1.825000 46.278 89.2686
1.850000 46.504 88.1500
1.875000 46.735 87.0599
1.900000 46.971 85.9957
1.925000 47.210 84.9551
1.950000 47.453 83.9358
1.975000 47.699 82.9354
2.000000 47.946 81.9517
2.030000 48.245 80.7898
2.060000 48.544 79.6445
2.090000 48.843 78.5118
2.120000 49.141 77.3876
2.140000 49.338 76.6409
2.180000 49.727 75.1488
2.200000 49.918 74.4011
2.240000 50.300 72.9159
2.270000 50.586 71.8157
2.300000 50.873 70.7267
2.330000 51.158 69.6484
2.360000 51.443 68.5806
2.400000 51.820 67.1721
2.430000 52.100 66.1268
2.470000 52.469 64.7470
2.500000 52.743 63.7220
2.540000 53.102 62.3678
2.580000 53.455 61.0271
2.620000 53.802 59.7019
2.650000 54.059 58.7184
2.690000 54.399 57.4210
2.720000 54.650 56.4582
2.760000 54.981 55.1881
2.800000 55.307 53.9334
2.850000 55.706 52.3866
2.900000 56.098 50.8633
2.950000 56.480 49.3640
3.000000 56.854 47.8936
3.040000 57.146 46.7372
3.070000 57.362 45.8803
3.110000 57.646 44.7503
3.150000 57.924 43.6330
3.200000 58.266 42.2518
3.250000 58.600 40.8846
3.300000 58.927 39.5279
3.350000 59.246 38.1808
3.400000 59.558 36.8457
3.450000 59.862 35.5254
3.500000 60.159 34.2225
3.550000 60.449 32.9396
3.600000 60.733 31.6795
3.650000 61.013 30.4447
3.700000 61.286 29.2378
3.750000 61.553 28.0582
3.820000 61.915 26.4469
3.870000 62.167 25.3205
3.950000 62.560 23.5519
4.000000 62.800 22.4629
4.060000 63.082 21.1686
4.120000 63.357 19.8926
4.180000 63.624 18.6369
4.250000 63.928 17.1995
4.310000 64.182 15.9926
4.370000 64.431 14.8104
4.440000 64.716 13.4650
4.500000 64.954 12.3420
4.550000 65.148 11.4252
4.620000 65.413 10.1669
4.680000 65.636 9.1083
4.750000 65.891 7.8920
4.820000 66.140 6.6948
4.870000 66.315 5.8542
4.940000 66.554 4.6975
5.000000 66.755 3.7244
5.080000 67.017 2.4529
5.150000 67.242 1.3645
5.220000 67.462 0.3007
5.300000 67.708 -0.8863
5.380000 67.948 -2.0455
5.450000 68.155 -3.0395
5.520000 68.358 -4.0162
5.600000 68.586 -5.1074
5.700000 68.864 -6.4357
5.800000 69.136 -7.7298
5.900000 69.404 -8.9941
6.000000 69.666 -10.2230
6.080000 69.872 -11.1837
6.150000 70.050 -12.0113
6.220000 70.226 -12.8294
6.300000 70.426 -13.7504
6.400000 70.672 -14.8775
6.500000 70.914 -15.9870
6.600000 71.152 -17.0892
6.700000 71.388 -18.1818
6.800000 71.621 -19.2631
6.900000 71.849 -20.3392
7.000000 72.073 -21.4153
7.100000 72.294 -22.4886
7.200000 72.511 -23.5592
7.300000 72.722 -24.6286
7.400000 72.928 -25.6993
7.500000 73.129 -26.7713
7.620000 73.363 -28.0517
7.750000 73.606 -29.4239
7.880000 73.838 -30.7872
8.000000 74.044 -32.0256
8.120000 74.242 -33.2335
8.250000 74.446 -34.5157
8.380000 74.642 -35.7581
8.500000 74.816 -36.8591
8.620000 74.983 -37.9209
8.750000 75.159 -39.0247
8.850000 75.293 -39.8381
9.000000 75.489 -40.9992
9.120000 75.644 -41.8879
9.250000 75.812 -42.8147
9.380000 75.980 -43.7003
9.500000 76.136 -44.4995
9.620000 76.292 -45.2876
9.750000 76.463 -46.1228
9.880000 76.634 -46.9585
10.000000 76.792 -47.7367
10.150000 76.989 -48.7132
10.300000 77.183 -49.7065
10.440000 77.362 -50.6509
10.600000 77.562 -51.7441
10.750000 77.742 -52.7820
10.900000 77.917 -53.8298
11.060000 78.095 -54.9423
11.200000 78.245 -55.9146
11.380000 78.430 -57.1465
11.500000 78.548 -57.9537
11.720000 78.755 -59.4017
11.800000 78.828 -59.9151
12.060000 79.058 -61.5404
12.200000 79.178 -62.3886
12.410000 79.353 -63.6275
12.500000 79.427 -64.1490
12.650000 79.548 -65.0042
12.800000 79.667 -65.8448
13.150000 79.937 -67.7571
13.200000 79.975 -68.0246
13.400000 80.123 -69.0811
13.600000 80.267 -70.1145
13.800000 80.408 -71.1242
14.000000 80.547 -72.1112
14.300000 80.749 -73.5509
14.500000 80.882 -74.4871
14.750000 81.045 -75.6371
15.000000 81.205 -76.7679
15.250000 81.362 -77.8847
15.500000 81.513 -78.9877
15.750000 81.660 -80.0762
16.000000 81.802 -81.1474
16.250000 81.937 -82.1958
16.500000 82.068 -83.2178
16.750000 82.194 -84.2085
17.000000 82.317 -85.1662
17.250000 82.437 -86.0938
17.500000 82.557 -86.9955
17.750000 82.677 -87.8863
18.000000 82.797 -88.7771
18.250000 82.917 -89.6801
18.500000 83.032 -90.6053
18.750000 83.143 -91.5479
19.000000 83.245 -92.5033
19.250000 83.340 -93.4499
19.500000 83.426 -94.3710
19.750000 83.506 -95.2537
20.000000 83.584 -96.0866
20.299999 83.677 -97.0303
20.600000 83.773 -97.9306
20.900000 83.874 -98.8132
21.200001 83.978 -99.7019
21.400000 84.048 -100.3029
21.799999 84.186 -101.5211
22.000000 84.253 -102.1341
22.400000 84.382 -103.3571
22.700001 84.476 -104.2659
23.000000 84.565 -105.1622
23.299999 84.650 -106.0368
23.600000 84.731 -106.8797
24.000000 84.835 -107.9449
24.299999 84.914 -108.7072
24.700001 85.019 -109.7032
25.000000 85.096 -110.4527
25.400000 85.190 -111.4500
25.799999 85.271 -112.3950
26.200001 85.347 -113.2428
26.500000 85.409 -113.8338
26.900000 85.502 -114.6413
27.200001 85.572 -115.3209
27.600000 85.650 -116.3374
28.000000 85.697 -117.3619
28.500000 85.725 -118.3838
29.000000 85.781 -119.0583
29.500000 85.905 -119.7426
30.000000 86.063 -120.8510
30.400000 86.171 -122.0411
30.700001 86.230 -123.0031
31.100000 86.290 -124.2623
31.500000 86.341 -125.4977
32.000000 86.384 -127.1145
32.500000 86.366 -128.7042
33.000000 86.281 -129.7458
33.500000 86.218 -129.8734
34.000000 86.293 -129.5021
34.500000 86.500 -129.5740
35.000000 86.713 -130.5257
35.500000 86.825 -131.9017
36.000000 86.850 -132.9675
36.500000 86.872 -133.5218
37.000000 86.945 -133.9504
37.500000 87.040 -134.6304
38.200001 87.122 -135.8900
38.700001 87.146 -136.6951
39.500000 87.195 -137.8236
40.000000 87.230 -138.6122
40.599998 87.256 -139.6072
41.200001 87.273 -140.5202
41.799999 87.301 -141.3754
42.500000 87.344 -142.4059
43.099998 87.381 -143.3081
43.700001 87.418 -144.1989
44.400002 87.459 -145.2308
45.000000 87.488 -146.0877
45.500000 87.511 -146.7609
46.200001 87.546 -147.6679
46.799999 87.575 -148.4484
47.500000 87.605 -149.3509
48.200001 87.637 -150.2617
48.700001 87.656 -150.9575
49.400002 87.663 -151.9548
50.000000 87.652 -152.6893
50.799999 87.647 -153.4234
51.500000 87.673 -154.0303
52.200001 87.706 -154.7277
53.000000 87.737 -155.5628
53.799999 87.766 -156.4290
54.500000 87.779 -157.2323
55.200001 87.776 -157.9961
56.000000 87.768 -158.7700
57.000000 87.766 -159.6994
58.000000 87.768 -160.6339
59.000000 87.777 -161.5891
60.000000 87.782 -162.5975
60.799999 87.779 -163.3789
61.500000 87.776 -164.0204
62.200001 87.774 -164.6454
63.000000 87.768 -165.3515
64.000000 87.756 -166.1913
65.000000 87.744 -166.9875
66.000000 87.734 -167.7811
67.000000 87.725 -168.5950
68.000000 87.711 -169.4201
69.000000 87.693 -170.2332
70.000000 87.670 -171.0117
71.000000 87.647 -171.7426
72.000000 87.624 -172.4604
73.000000 87.598 -173.1748
74.000000 87.572 -173.8810
75.000000 87.545 -174.5965
76.199997 87.509 -175.4447
77.500000 87.469 -176.3229
78.800003 87.431 -177.1356
80.000000 87.397 -177.8355
81.199997 87.365 -178.5150
82.500000 87.324 -179.2773
83.800003 87.274 179.9626
85.000000 87.228 179.2414
86.199997 87.180 178.4929
87.500000 87.131 177.6944
88.500000 87.099 177.0894
90.000000 87.045 176.2013
91.199997 86.991 175.5934
92.500000 86.927 175.0136
93.800003 86.851 174.4433
95.000000 86.770 173.8985
96.199997 86.686 173.2935
97.500000 86.595 172.5143
98.800003 86.485 171.6596
100.000000 86.368 171.1594
101.500000 86.279 170.8857
103.000000 86.212 170.5372
104.400002 86.117 170.2979
106.000000 85.981 170.2554
107.500000 85.846 170.4264
109.000000 85.734 170.8560
110.599998 85.683 171.5154
112.000000 85.710 172.1362
113.800003 85.836 172.6204
115.000000 85.941 172.5533
117.199997 86.099 171.6329
118.000000 86.133 171.1020
120.599998 86.161 169.1801
122.000000 86.135 168.1906
124.099998 86.063 166.9529
125.000000 86.024 166.4862
126.500000 85.950 165.7620
128.000000 85.868 165.1076
131.500000 85.690 163.7346
132.000000 85.665 163.5538
134.000000 85.566 162.8707
136.000000 85.448 162.3012
138.000000 85.326 161.8703
140.000000 85.211 161.4461
143.000000 85.050 160.7722
145.000000 84.939 160.4173
147.500000 84.799 160.0955
150.000000 84.663 159.7853
152.500000 84.540 159.4142
155.000000 84.427 159.0248
157.500000 84.308 158.6607
160.000000 84.178 158.3817
162.500000 84.054 158.1664
165.000000 83.938 157.9619
167.500000 83.819 157.7646
170.000000 83.693 157.5891
172.500000 83.566 157.4579
175.000000 83.447 157.3792
177.500000 83.335 157.3308
180.000000 83.225 157.2834
182.500000 83.115 157.2344
185.000000 83.001 157.1969
187.500000 82.885 157.1833
190.000000 82.770 157.2038
192.500000 82.658 157.2546
195.000000 82.548 157.3269
197.500000 82.441 157.4061
200.000000 82.336 157.4949
203.000000 82.213 157.6526
206.000000 82.095 157.8638
209.000000 81.976 158.0887
212.000000 81.858 158.3226
214.000000 81.780 158.4893
218.000000 81.629 158.8807
220.000000 81.557 159.1038
224.000000 81.422 159.5670
227.000000 81.327 159.9077
230.000000 81.238 160.2316
233.000000 81.152 160.5373
236.000000 81.066 160.8602
240.000000 80.956 161.3471
243.000000 80.875 161.7426
247.000000 80.765 162.3214
250.000000 80.691 162.7560
254.000000 80.612 163.2538
258.000000 80.543 163.7060
262.000000 80.473 164.1299
265.000000 80.418 164.4312
269.000000 80.338 164.8425
272.000000 80.275 165.1618
276.000000 80.190 165.6121
280.000000 80.106 166.0890
285.000000 80.007 166.7081
290.000000 79.917 167.3362
295.000000 79.833 167.9771
300.000000 79.750 168.6193
304.000000 79.689 169.1445
307.000000 79.645 169.5475
311.000000 79.590 170.0843
315.000000 79.537 170.6156
320.000000 79.473 171.2650
325.000000 79.413 171.9019
330.000000 79.359 172.5552
335.000000 79.308 173.2085
340.000000 79.258 173.8490
345.000000 79.214 174.4883
350.000000 79.174 175.1175
355.000000 79.131 175.7214
360.000000 79.090 176.3216
365.000000 79.054 176.9217
370.000000 79.020 177.5142
375.000000 78.987 178.0994
382.000000 78.944 178.9089
387.000000 78.916 179.4853
395.000000 78.872 -179.6042
400.000000 78.847 -179.0514
406.000000 78.819 -178.3888
412.000000 78.794 -177.7256
418.000000 78.770 -177.0705
425.000000 78.743 -176.3347
431.000000 78.722 -175.7193
437.000000 78.702 -175.1023
444.000000 78.686 -174.3654
450.000000 78.673 -173.7377
455.000000 78.655 -173.2479
462.000000 78.632 -172.5792
468.000000 78.617 -171.9972
475.000000 78.602 -171.3129
482.000000 78.587 -170.6387
487.000000 78.576 -170.1665
494.000000 78.562 -169.5116
500.000000 78.552 -168.9471
508.000000 78.539 -168.1871
515.000000 78.529 -167.5316
522.000000 78.519 -166.8917
530.000000 78.509 -166.1657
538.000000 78.500 -165.4350
545.000000 78.492 -164.7819
552.000000 78.485 -164.1382
560.000000 78.480 -163.4373
570.000000 78.472 -162.5551
580.000000 78.466 -161.6617
590.000000 78.462 -160.7706
600.000000 78.460 -159.8883
608.000000 78.459 -159.1824
615.000000 78.460 -158.5659
622.000000 78.462 -157.9489
630.000000 78.465 -157.2434
640.000000 78.471 -156.3799
650.000000 78.480 -155.5166
660.000000 78.488 -154.6057
670.000000 78.498 -153.7041
680.000000 78.510 -152.8304
690.000000 78.525 -151.9572
700.000000 78.545 -151.0823
710.000000 78.568 -150.2096
720.000000 78.592 -149.3397
730.000000 78.619 -148.4804
740.000000 78.651 -147.6359
750.000000 78.689 -146.8018
762.000000 78.738 -145.8017
775.000000 78.799 -144.7715
788.000000 78.874 -143.8336
800.000000 78.954 -143.1356
812.000000 79.027 -142.7725
825.000000 79.020 -142.8148
838.000000 78.839 -142.3554
850.000000 78.675 -140.4771
862.000000 78.700 -138.1531
875.000000 78.848 -136.2593
885.000000 78.971 -135.1956
900.000000 79.135 -133.9073
912.000000 79.254 -133.0173
925.000000 79.379 -132.1460
938.000000 79.502 -131.3563
950.000000 79.612 -130.7204
962.000000 79.714 -130.1820
975.000000 79.806 -129.6981
988.000000 79.868 -129.2333
1000.000000 79.900 -128.6936
1015.000000 79.934 -127.7462
1030.000000 79.997 -126.5702
1044.000000 80.091 -125.4630
1060.000000 80.228 -124.3371
1075.000000 80.366 -123.4288
1090.000000 80.502 -122.6461
1106.000000 80.644 -121.9066
1120.000000 80.764 -121.3084
1138.000000 80.913 -120.5989
1150.000000 81.009 -120.1638
1172.000000 81.175 -119.4344
1180.000000 81.233 -119.1814
1206.000000 81.414 -118.3955
1220.000000 81.507 -117.9962
1241.000000 81.641 -117.4190
1250.000000 81.696 -117.1774
1265.000000 81.784 -116.7833
1280.000000 81.869 -116.3957
1315.000000 82.056 -115.5050
1320.000000 82.082 -115.3779
1340.000000 82.182 -114.8662
1360.000000 82.279 -114.3562
1380.000000 82.373 -113.8505
1400.000000 82.465 -113.3339
1430.000000 82.599 -112.5468
1450.000000 82.686 -112.0139
1475.000000 82.793 -111.3426
1500.000000 82.900 -110.6693
1525.000000 83.005 -109.9850
1550.000000 83.111 -109.2936
1575.000000 83.217 -108.6008
1600.000000 83.322 -107.9003
1625.000000 83.429 -107.1955
1650.000000 83.537 -106.4929
1675.000000 83.647 -105.7945
1700.000000 83.757 -105.0989
1725.000000 83.870 -104.4096
1750.000000 83.984 -103.7295
1775.000000 84.100 -103.0542
1800.000000 84.217 -102.3888
1825.000000 84.337 -101.7373
1850.000000 84.459 -101.0955
1875.000000 84.582 -100.4628
1900.000000 84.706 -99.8472
1925.000000 84.833 -99.2545
1950.000000 84.962 -98.6850
1975.000000 85.092 -98.1312
2000.000000 85.223 -97.5934
2030.000000 85.382 -96.9749
2060.000000 85.544 -96.3944
2090.000000 85.708 -95.8537
2120.000000 85.872 -95.3455
2140.000000 85.983 -95.0264
2180.000000 86.206 -94.4471
2200.000000 86.319 -94.1860
2240.000000 86.544 -93.7131
2270.000000 86.714 -93.4092
2300.000000 86.883 -93.1536
2330.000000 87.053 -92.9477
2360.000000 87.221 -92.7919
2400.000000 87.444 -92.6598
2430.000000 87.609 -92.6199
2470.000000 87.827 -92.6483
2500.000000 87.987 -92.7325
2540.000000 88.194 -92.9273
2580.000000 88.394 -93.2163
2620.000000 88.584 -93.5990
2650.000000 88.721 -93.9443
2690.000000 88.893 -94.4759
2720.000000 89.013 -94.9287
2760.000000 89.162 -95.6013
2800.000000 89.297 -96.3500
2850.000000 89.440 -97.3794
2900.000000 89.555 -98.4841
2950.000000 89.637 -99.6502
3000.000000 89.687 -100.8464
3040.000000 89.701 -101.7955
3070.000000 89.699 -102.4909
3110.000000 89.677 -103.3852
3150.000000 89.637 -104.2294
3200.000000 89.561 -105.1931
3250.000000 89.459 -106.0311
3300.000000 89.336 -106.7243
3350.000000 89.198 -107.2610
3400.000000 89.048 -107.6366
3450.000000 88.889 -107.8518
3500.000000 88.728 -107.9196
3550.000000 88.566 -107.8551
3600.000000 88.404 -107.6727
3650.000000 88.245 -107.3814
3700.000000 88.088 -106.9909
3750.000000 87.935 -106.5154
3820.000000 87.727 -105.7199
3870.000000 87.583 -105.0631
3950.000000 87.365 -103.8719
4000.000000 87.239 -103.0579
4060.000000 87.097 -102.0235
4120.000000 86.965 -100.9270
4180.000000 86.843 -99.7857
4250.000000 86.715 -98.4186
4310.000000 86.619 -97.2275
4370.000000 86.534 -96.0345
4440.000000 86.446 -94.6597
4500.000000 86.381 -93.5192
4550.000000 86.331 -92.6051
4620.000000 86.261 -91.3714
4680.000000 86.199 -90.3394
4750.000000 86.128 -89.1684
4820.000000 86.052 -88.0346
4870.000000 85.994 -87.2313
4940.000000 85.903 -86.0845
5000.000000 85.819 -85.0642
5080.000000 85.704 -83.6290
5150.000000 85.605 -82.2933
5220.000000 85.510 -80.8919
5300.000000 85.411 -79.2472
5380.000000 85.323 -77.5893
5450.000000 85.254 -76.1387
5520.000000 85.188 -74.6903
5600.000000 85.118 -73.0426
5700.000000 85.037 -71.0042
5800.000000 84.959 -68.9973
5900.000000 84.882 -67.0094
6000.000000 84.804 -65.0079
6080.000000 84.742 -63.3853
6150.000000 84.688 -61.9410
6220.000000 84.635 -60.4726
6300.000000 84.576 -58.7671
6400.000000 84.510 -56.5862
6500.000000 84.450 -54.3452
6600.000000 84.400 -52.0430
6700.000000 84.361 -49.6806
6800.000000 84.339 -47.2596
6900.000000 84.334 -44.7868
7000.000000 84.349 -42.2619
7100.000000 84.390 -39.6971
7200.000000 84.462 -37.1252
7300.000000 84.568 -34.5815
7400.000000 84.707 -32.0936
7500.000000 84.882 -29.6864
7620.000000 85.143 -26.9416
7750.000000 85.495 -24.2204
7880.000000 85.923 -21.8775
8000.000000 86.388 -20.1751
8120.000000 86.922 -19.0642
8250.000000 87.572 -18.7473
8380.000000 88.274 -19.6538
8500.000000 88.927 -21.9069
8620.000000 89.515 -25.8035
8750.000000 89.960 -31.9484
8850.000000 90.084 -37.7719
9000.000000 89.819 -47.1617
9120.000000 89.218 -54.0390
9250.000000 88.263 -59.8578
9380.000000 87.121 -63.6268
9500.000000 86.006 -65.4006
9620.000000 84.901 -65.8200
9750.000000 83.761 -65.0929
9880.000000 82.701 -63.4542
10000.000000 81.798 -61.3394
10150.000000 80.771 -58.0841
10300.000000 79.849 -54.3309
10440.000000 79.081 -50.5161
10600.000000 78.304 -45.9119
10750.000000 77.666 -41.4329
10900.000000 77.112 -36.8747
11060.000000 76.609 -32.0405
11200.000000 76.237 -27.9068
11380.000000 75.841 -22.7599
11500.000000 75.620 -19.4227
11720.000000 75.301 -13.5380
11800.000000 75.212 -11.4710
12060.000000 75.035 -5.1124
12200.000000 75.018 -2.0147
12410.000000 75.093 1.9540
12500.000000 75.158 3.3278
12650.000000 75.296 5.0742
12800.000000 75.447 6.0394
13150.000000 75.654 5.3038
13200.000000 75.652 4.9231
13400.000000 75.536 2.9651
13600.000000 75.242 0.6508
13800.000000 74.774 -1.5514
14000.000000 74.167 -3.2408
14300.000000 73.104 -4.3136
14500.000000 72.381 -4.0455
14750.000000 71.551 -2.8652
15000.000000 70.860 -1.0934
15250.000000 70.343 0.8698
15500.000000 70.027 2.6063
15750.000000 69.935 3.6724
16000.000000 70.082 3.5755
16250.000000 70.479 1.5804
16500.000000 71.095 -3.4271
16750.000000 71.764 -12.8449
17000.000000 72.134 -27.7206
17250.000000 71.786 -46.9426
17500.000000 70.500 -66.4774
17750.000000 68.427 -82.4499
18000.000000 65.970 -94.0958
18250.000000 63.505 -102.7849
18500.000000 61.234 -110.1500
18750.000000 59.207 -117.5347
19000.000000 57.379 -125.9575
19250.000000 55.661 -136.1104
19500.000000 53.918 -148.1661
19750.000000 52.108 -160.5138
