* Measurement data measured by REW V5.20.9
* Source: Headset (USB-C to 3.5mm Headphone Jack Adapter), MICROPHONE (Master Volume), L, volume: 0.260. Timing signal peak level -27.9 dBFS, measurement signal peak level -20.3 dBFS
* Format: 256k Log Swept Sine, 1 sweep at -12.0 dBFS using an acoustic timing reference
* Dated: 06/01/2024 4:28:38 PM
* REW Settings:
*  C-weighting compensation: Off
*  Target level: 75.0 dB
* Note: ; Delay -0.0238 ms (-8.2 mm, -0.32 in) using estimated IR delay relative to Acoustic reference on SPEAKER L with no timing offset
* Measurement: Turbo 1100 L
* Smoothing: 1/24 octave
* Frequency Step: 1/48 octave
* Start Frequency: 1.000 Hz
*
* Freq(Hz) SPL(dB) Phase(degrees)
1.000000 57.271 -106.6508
1.015000 57.494 -108.1880
1.030000 57.715 -109.6747
1.044000 57.920 -111.0118
1.060000 58.150 -112.4738
1.075000 58.362 -113.7746
1.090000 58.571 -115.0018
1.106000 58.789 -116.2244
1.120000 58.980 -117.2258
1.138000 59.223 -118.4271
1.150000 59.386 -119.1780
1.172000 59.682 -120.4597
1.180000 59.789 -120.8977
1.206000 60.137 -122.2296
1.220000 60.323 -122.8951
1.241000 60.601 -123.8359
1.250000 60.720 -124.2209
1.265000 60.917 -124.8420
1.280000 61.113 -125.4416
1.315000 61.566 -126.7839
1.320000 61.630 -126.9718
1.340000 61.885 -127.7205
1.360000 62.138 -128.4735
1.380000 62.389 -129.2421
1.400000 62.638 -130.0375
1.430000 63.005 -131.3058
1.450000 63.247 -132.2180
1.475000 63.544 -133.4468
1.500000 63.838 -134.7296
1.525000 64.129 -136.0474
1.550000 64.416 -137.3927
1.575000 64.699 -138.7580
1.600000 64.978 -140.1360
1.625000 65.255 -141.5191
1.650000 65.527 -142.8999
1.675000 65.796 -144.2711
1.700000 66.062 -145.6250
1.725000 66.324 -146.9543
1.750000 66.583 -148.2515
1.775000 66.838 -149.5093
1.800000 67.090 -150.7200
1.825000 67.338 -151.8763
1.850000 67.583 -152.9755
1.875000 67.824 -154.0276
1.900000 68.061 -155.0376
1.925000 68.294 -156.0103
1.950000 68.523 -156.9505
1.975000 68.750 -157.8627
2.000000 68.972 -158.7517
2.030000 69.236 -159.7946
2.060000 69.494 -160.8191
2.090000 69.749 -161.8333
2.120000 69.999 -162.8453
2.140000 70.164 -163.5228
2.180000 70.489 -164.8955
2.200000 70.649 -165.5954
2.240000 70.963 -167.0015
2.270000 71.194 -168.0526
2.300000 71.420 -169.0993
2.330000 71.641 -170.1405
2.360000 71.859 -171.1753
2.400000 72.143 -172.5427
2.430000 72.352 -173.5577
2.470000 72.625 -174.8948
2.500000 72.827 -175.8839
2.540000 73.091 -177.1823
2.580000 73.351 -178.4560
2.620000 73.603 -179.7119
2.650000 73.789 179.3573
2.690000 74.031 178.1320
2.720000 74.208 177.2257
2.760000 74.440 176.0351
2.800000 74.667 174.8660
2.850000 74.945 173.4368
2.900000 75.216 172.0458
2.950000 75.481 170.6967
3.000000 75.739 169.3989
3.040000 75.939 168.3939
3.070000 76.087 167.6565
3.110000 76.279 166.6912
3.150000 76.468 165.7421
3.200000 76.699 164.5714
3.250000 76.925 163.4095
3.300000 77.147 162.2474
3.350000 77.364 161.0826
3.400000 77.575 159.9223
3.450000 77.780 158.7733
3.500000 77.980 157.6422
3.550000 78.177 156.5357
3.600000 78.369 155.4604
3.650000 78.558 154.4232
3.700000 78.744 153.4305
3.750000 78.926 152.4814
3.820000 79.173 151.2106
3.870000 79.346 150.3330
3.950000 79.615 148.9586
4.000000 79.781 148.1053
4.060000 79.976 147.0764
4.120000 80.166 146.0523
4.180000 80.353 145.0398
4.250000 80.565 143.8804
4.310000 80.744 142.9113
4.370000 80.919 141.9706
4.440000 81.121 140.9160
4.500000 81.290 140.0489
4.550000 81.428 139.3471
4.620000 81.619 138.3885
4.680000 81.779 137.5818
4.750000 81.963 136.6485
4.820000 82.144 135.7203
4.870000 82.270 135.0656
4.940000 82.445 134.1619
5.000000 82.592 133.4005
5.080000 82.784 132.4059
5.150000 82.949 131.5566
5.220000 83.112 130.7289
5.300000 83.293 129.8063
5.380000 83.472 128.9043
5.450000 83.625 128.1283
5.520000 83.775 127.3621
5.600000 83.944 126.5025
5.700000 84.151 125.4516
5.800000 84.352 124.4232
5.900000 84.549 123.4138
6.000000 84.742 122.4257
6.080000 84.893 121.6501
6.150000 85.022 120.9817
6.220000 85.150 120.3220
6.300000 85.294 119.5802
6.400000 85.469 118.6716
6.500000 85.641 117.7793
6.600000 85.809 116.8984
6.700000 85.974 116.0283
6.800000 86.134 115.1711
6.900000 86.291 114.3270
7.000000 86.444 113.4967
7.100000 86.594 112.6811
7.200000 86.740 111.8783
7.300000 86.883 111.0864
7.400000 87.023 110.3041
7.500000 87.159 109.5323
7.620000 87.319 108.6208
7.750000 87.487 107.6526
7.880000 87.650 106.7047
8.000000 87.796 105.8458
8.120000 87.939 105.0011
8.250000 88.089 104.1028
8.380000 88.236 103.2207
8.500000 88.368 102.4198
8.620000 88.497 101.6326
8.750000 88.633 100.7930
8.850000 88.736 100.1556
9.000000 88.887 99.2145
9.120000 89.005 98.4727
9.250000 89.130 97.6789
9.380000 89.252 96.8961
9.500000 89.363 96.1821
9.620000 89.471 95.4763
9.750000 89.586 94.7210
9.880000 89.698 93.9742
10.000000 89.800 93.2920
10.150000 89.924 92.4492
10.300000 90.046 91.6167
10.440000 90.157 90.8489
10.600000 90.280 89.9820
10.750000 90.393 89.1786
10.900000 90.504 88.3848
11.060000 90.619 87.5491
11.200000 90.717 86.8270
11.380000 90.839 85.9129
11.500000 90.919 85.3124
11.720000 91.062 84.2315
11.800000 91.113 83.8454
12.060000 91.274 82.6156
12.200000 91.360 81.9693
12.410000 91.485 81.0195
12.500000 91.539 80.6184
12.650000 91.627 79.9589
12.800000 91.714 79.3072
13.150000 91.915 77.8093
13.200000 91.943 77.5969
13.400000 92.055 76.7506
13.600000 92.165 75.9083
13.800000 92.272 75.0689
14.000000 92.375 74.2355
14.300000 92.523 72.9996
14.500000 92.617 72.1905
14.750000 92.730 71.2014
15.000000 92.838 70.2397
15.250000 92.942 69.3073
15.500000 93.043 68.4016
15.750000 93.142 67.5202
16.000000 93.239 66.6581
16.250000 93.334 65.8108
16.500000 93.426 64.9758
16.750000 93.516 64.1509
17.000000 93.604 63.3353
17.250000 93.689 62.5289
17.500000 93.771 61.7319
17.750000 93.850 60.9446
18.000000 93.927 60.1672
18.250000 94.001 59.4000
18.500000 94.073 58.6436
18.750000 94.142 57.8983
19.000000 94.209 57.1643
19.250000 94.275 56.4417
19.500000 94.339 55.7298
19.750000 94.401 55.0281
20.000000 94.462 54.3353
20.299999 94.534 53.5144
20.600000 94.603 52.7041
20.900000 94.671 51.9041
21.200001 94.736 51.1153
21.400000 94.778 50.5961
21.799999 94.860 49.5743
22.000000 94.900 49.0720
22.400000 94.977 48.0841
22.700001 95.033 47.3578
23.000000 95.087 46.6439
23.299999 95.139 45.9428
23.600000 95.190 45.2542
24.000000 95.256 44.3542
24.299999 95.303 43.6910
24.700001 95.365 42.8202
25.000000 95.409 42.1761
25.400000 95.466 41.3295
25.799999 95.520 40.4988
26.200001 95.572 39.6844
26.500000 95.609 39.0833
26.900000 95.657 38.2924
27.200001 95.692 37.7061
27.600000 95.736 36.9336
28.000000 95.779 36.1735
28.500000 95.830 35.2418
29.000000 95.879 34.3255
29.500000 95.926 33.4197
30.000000 95.969 32.5270
30.400000 96.002 31.8283
30.700001 96.026 31.3152
31.100000 96.057 30.6431
31.500000 96.088 29.9788
32.000000 96.125 29.1525
32.500000 96.159 28.3354
33.000000 96.189 27.5422
33.500000 96.217 26.7802
34.000000 96.246 26.0401
34.500000 96.275 25.3058
35.000000 96.302 24.5717
35.500000 96.327 23.8444
36.000000 96.350 23.1318
36.500000 96.372 22.4338
37.000000 96.393 21.7446
37.500000 96.413 21.0614
38.200001 96.438 20.1210
38.700001 96.454 19.4653
39.500000 96.478 18.4443
40.000000 96.493 17.8206
40.599998 96.509 17.0831
41.200001 96.524 16.3546
41.799999 96.536 15.6360
42.500000 96.548 14.8181
43.099998 96.557 14.1345
43.700001 96.566 13.4586
44.400002 96.573 12.6761
45.000000 96.578 12.0153
45.500000 96.582 11.4706
46.200001 96.586 10.7107
46.799999 96.588 10.0677
47.500000 96.591 9.3347
48.200001 96.595 8.5930
48.700001 96.596 8.0466
49.400002 96.588 7.3004
50.000000 96.577 6.7309
50.799999 96.573 6.0510
51.500000 96.578 5.4402
52.200001 96.581 4.7936
53.000000 96.579 4.0642
53.799999 96.574 3.3588
54.500000 96.568 2.7483
55.200001 96.560 2.1503
56.000000 96.549 1.4849
57.000000 96.535 0.6637
58.000000 96.521 -0.1516
59.000000 96.505 -0.9599
60.000000 96.488 -1.7599
60.799999 96.473 -2.3868
61.500000 96.460 -2.9237
62.200001 96.446 -3.4517
63.000000 96.429 -4.0447
64.000000 96.406 -4.7707
65.000000 96.382 -5.4818
66.000000 96.357 -6.1708
67.000000 96.333 -6.8506
68.000000 96.308 -7.5416
69.000000 96.280 -8.2227
70.000000 96.251 -8.8777
71.000000 96.222 -9.5156
72.000000 96.193 -10.1436
73.000000 96.163 -10.7612
74.000000 96.132 -11.3671
75.000000 96.101 -11.9624
76.199997 96.061 -12.6606
77.500000 96.018 -13.3954
78.800003 95.975 -14.1168
80.000000 95.933 -14.7684
81.199997 95.890 -15.4065
82.500000 95.841 -16.0764
83.800003 95.792 -16.7211
85.000000 95.748 -17.2961
86.199997 95.705 -17.8529
87.500000 95.661 -18.4482
88.500000 95.626 -18.8989
90.000000 95.575 -19.5489
91.199997 95.536 -20.0580
92.500000 95.496 -20.6125
93.800003 95.456 -21.1789
95.000000 95.420 -21.7219
96.199997 95.382 -22.2813
97.500000 95.339 -22.8993
98.800003 95.293 -23.5168
100.000000 95.247 -24.0597
101.500000 95.188 -24.6999
103.000000 95.128 -25.3146
104.400002 95.071 -25.8715
106.000000 95.004 -26.4933
107.500000 94.940 -27.0660
109.000000 94.876 -27.6278
110.599998 94.808 -28.2101
112.000000 94.750 -28.7057
113.800003 94.675 -29.3259
115.000000 94.625 -29.7325
117.199997 94.531 -30.4639
118.000000 94.496 -30.7245
120.599998 94.385 -31.5490
122.000000 94.325 -31.9808
124.099998 94.234 -32.6168
125.000000 94.195 -32.8841
126.500000 94.130 -33.3209
128.000000 94.065 -33.7475
131.500000 93.913 -34.7119
132.000000 93.891 -34.8459
134.000000 93.802 -35.3730
136.000000 93.715 -35.8894
138.000000 93.627 -36.3922
140.000000 93.538 -36.8795
143.000000 93.404 -37.5892
145.000000 93.316 -38.0465
147.500000 93.210 -38.5891
150.000000 93.104 -39.1239
152.500000 92.985 -39.6211
155.000000 92.866 -40.0815
157.500000 92.749 -40.5393
160.000000 92.634 -40.9757
162.500000 92.520 -41.3872
165.000000 92.403 -41.7724
167.500000 92.285 -42.1292
170.000000 92.165 -42.4519
172.500000 92.043 -42.7286
175.000000 91.921 -42.9518
177.500000 91.799 -43.1057
180.000000 91.681 -43.1769
182.500000 91.567 -43.1554
185.000000 91.465 -43.0298
187.500000 91.385 -42.8057
190.000000 91.338 -42.5342
192.500000 91.330 -42.3329
195.000000 91.354 -42.3445
197.500000 91.389 -42.6609
200.000000 91.410 -43.2744
203.000000 91.390 -44.2432
206.000000 91.318 -45.2363
209.000000 91.213 -46.1371
212.000000 91.090 -46.9075
214.000000 91.004 -47.3481
218.000000 90.827 -48.0893
220.000000 90.739 -48.4069
224.000000 90.564 -48.9626
227.000000 90.435 -49.3281
230.000000 90.309 -49.6639
233.000000 90.184 -49.9764
236.000000 90.060 -50.2585
240.000000 89.898 -50.5878
243.000000 89.779 -50.8214
247.000000 89.622 -51.1332
250.000000 89.506 -51.3470
254.000000 89.352 -51.5753
258.000000 89.201 -51.7897
262.000000 89.050 -51.9982
265.000000 88.937 -52.1461
269.000000 88.789 -52.3291
272.000000 88.679 -52.4480
276.000000 88.532 -52.5908
280.000000 88.385 -52.7202
285.000000 88.204 -52.8574
290.000000 88.024 -52.9736
295.000000 87.845 -53.0580
300.000000 87.668 -53.1180
304.000000 87.526 -53.1504
307.000000 87.421 -53.1614
311.000000 87.281 -53.1577
315.000000 87.141 -53.1350
320.000000 86.966 -53.0801
325.000000 86.793 -52.9889
330.000000 86.623 -52.8473
335.000000 86.456 -52.6639
340.000000 86.293 -52.4413
345.000000 86.135 -52.1708
350.000000 85.986 -51.8747
355.000000 85.848 -51.5877
360.000000 85.720 -51.3041
365.000000 85.597 -51.0380
370.000000 85.478 -50.8080
375.000000 85.362 -50.6147
382.000000 85.197 -50.3755
387.000000 85.078 -50.2115
395.000000 84.892 -49.9507
400.000000 84.777 -49.8147
406.000000 84.636 -49.7080
412.000000 84.486 -49.6390
418.000000 84.324 -49.5624
425.000000 84.123 -49.4108
431.000000 83.945 -49.2059
437.000000 83.764 -48.9296
444.000000 83.557 -48.5144
450.000000 83.383 -48.1023
455.000000 83.237 -47.7543
462.000000 83.036 -47.2286
468.000000 82.869 -46.7271
475.000000 82.678 -46.0933
482.000000 82.491 -45.4154
487.000000 82.360 -44.9088
494.000000 82.181 -44.1682
500.000000 82.032 -43.5068
508.000000 81.837 -42.6005
515.000000 81.671 -41.7772
522.000000 81.510 -40.9190
530.000000 81.331 -39.8970
538.000000 81.160 -38.8378
545.000000 81.016 -37.8728
552.000000 80.877 -36.8896
560.000000 80.723 -35.7678
570.000000 80.542 -34.3198
580.000000 80.372 -32.8165
590.000000 80.213 -31.2737
600.000000 80.065 -29.7024
608.000000 79.957 -28.4186
615.000000 79.870 -27.2791
622.000000 79.789 -26.1311
630.000000 79.702 -24.8140
640.000000 79.602 -23.1675
650.000000 79.513 -21.5197
660.000000 79.444 -19.8582
670.000000 79.386 -18.2036
680.000000 79.337 -16.5654
690.000000 79.299 -14.9286
700.000000 79.273 -13.3018
710.000000 79.259 -11.7029
720.000000 79.256 -10.1320
730.000000 79.262 -8.5795
740.000000 79.275 -7.0531
750.000000 79.297 -5.5691
762.000000 79.337 -3.8478
775.000000 79.394 -2.0389
788.000000 79.462 -0.2993
800.000000 79.532 1.2471
812.000000 79.612 2.7404
825.000000 79.708 4.2863
838.000000 79.811 5.7579
850.000000 79.912 7.0521
862.000000 80.018 8.2925
875.000000 80.139 9.5658
885.000000 80.237 10.4974
900.000000 80.387 11.8169
912.000000 80.509 12.7953
925.000000 80.645 13.7814
938.000000 80.785 14.7029
950.000000 80.913 15.4966
962.000000 81.043 16.2365
975.000000 81.183 16.9752
988.000000 81.323 17.6462
1000.000000 81.451 18.2105
1015.000000 81.610 18.8439
1030.000000 81.765 19.4032
1044.000000 81.906 19.8699
1060.000000 82.065 20.3324
1075.000000 82.210 20.7031
1090.000000 82.349 21.0209
1106.000000 82.491 21.3049
1120.000000 82.610 21.5168
1138.000000 82.757 21.7402
1150.000000 82.850 21.8593
1172.000000 83.008 22.0374
1180.000000 83.062 22.0920
1206.000000 83.228 22.2364
1220.000000 83.312 22.2930
1241.000000 83.431 22.3635
1250.000000 83.480 22.3911
1265.000000 83.556 22.4359
1280.000000 83.627 22.4802
1315.000000 83.782 22.5866
1320.000000 83.802 22.6021
1340.000000 83.883 22.6651
1360.000000 83.960 22.7379
1380.000000 84.032 22.8195
1400.000000 84.101 22.9042
1430.000000 84.201 23.0380
1450.000000 84.264 23.1315
1475.000000 84.340 23.2557
1500.000000 84.414 23.3978
1525.000000 84.484 23.5610
1550.000000 84.553 23.7484
1575.000000 84.624 23.9634
1600.000000 84.699 24.1898
1625.000000 84.779 24.4050
1650.000000 84.861 24.5773
1675.000000 84.940 24.6993
1700.000000 85.014 24.8087
1725.000000 85.081 24.9271
1750.000000 85.144 25.0705
1775.000000 85.208 25.2406
1800.000000 85.272 25.4294
1825.000000 85.337 25.6342
1850.000000 85.404 25.8507
1875.000000 85.472 26.0833
1900.000000 85.544 26.3315
1925.000000 85.620 26.5918
1950.000000 85.702 26.8602
1975.000000 85.791 27.1272
2000.000000 85.888 27.3700
2030.000000 86.010 27.6088
2060.000000 86.136 27.7816
2090.000000 86.260 27.8997
2120.000000 86.384 27.9894
2140.000000 86.466 28.0423
2180.000000 86.634 28.1404
2200.000000 86.720 28.1873
2240.000000 86.900 28.2718
2270.000000 87.046 28.3198
2300.000000 87.204 28.3373
2330.000000 87.377 28.2814
2360.000000 87.563 28.1069
2400.000000 87.822 27.6465
2430.000000 88.018 27.1339
2470.000000 88.279 26.2282
2500.000000 88.476 25.3505
2540.000000 88.730 23.8382
2580.000000 88.951 21.8776
2620.000000 89.106 19.5258
2650.000000 89.162 17.6159
2690.000000 89.153 15.0734
2720.000000 89.087 13.2997
2760.000000 88.935 11.2659
2800.000000 88.735 9.7067
2850.000000 88.457 8.4173
2900.000000 88.183 7.7546
2950.000000 87.932 7.6086
3000.000000 87.717 7.8692
3040.000000 87.577 8.2944
3070.000000 87.491 8.7167
3110.000000 87.406 9.3864
3150.000000 87.358 10.1194
3200.000000 87.351 11.0243
3250.000000 87.395 11.8137
3300.000000 87.479 12.3907
3350.000000 87.587 12.6863
3400.000000 87.701 12.6907
3450.000000 87.805 12.4398
3500.000000 87.892 11.9973
3550.000000 87.959 11.4310
3600.000000 88.006 10.7888
3650.000000 88.035 10.1053
3700.000000 88.048 9.4032
3750.000000 88.048 8.6887
3820.000000 88.028 7.6737
3870.000000 87.997 6.9518
3950.000000 87.920 5.8378
4000.000000 87.857 5.1930
4060.000000 87.768 4.4938
4120.000000 87.669 3.8856
4180.000000 87.564 3.3741
4250.000000 87.436 2.8905
4310.000000 87.325 2.5614
4370.000000 87.212 2.3036
4440.000000 87.081 2.0837
4500.000000 86.969 1.9619
4550.000000 86.876 1.9108
4620.000000 86.748 1.9164
4680.000000 86.642 1.9835
4750.000000 86.523 2.1251
4820.000000 86.408 2.3303
4870.000000 86.329 2.5131
4940.000000 86.221 2.8170
5000.000000 86.133 3.1196
5080.000000 86.020 3.5865
5150.000000 85.926 4.0558
5220.000000 85.838 4.5787
5300.000000 85.741 5.2495
5380.000000 85.647 6.0366
5450.000000 85.569 6.8894
5520.000000 85.508 7.9872
5600.000000 85.504 9.5558
5700.000000 85.659 11.3109
5800.000000 85.871 12.0770
5900.000000 86.043 12.2953
6000.000000 86.172 12.3317
6080.000000 86.263 12.3806
6150.000000 86.346 12.4285
6220.000000 86.436 12.4473
6300.000000 86.548 12.4000
6400.000000 86.697 12.2001
6500.000000 86.850 11.8139
6600.000000 86.999 11.2339
6700.000000 87.137 10.4786
6800.000000 87.257 9.5883
6900.000000 87.356 8.6268
7000.000000 87.437 7.6963
7100.000000 87.524 6.9036
7200.000000 87.659 6.0762
7300.000000 87.813 4.8833
7400.000000 87.951 3.4583
7500.000000 88.090 1.9085
7620.000000 88.275 -0.2302
7750.000000 88.492 -3.1231
7880.000000 88.696 -6.8455
8000.000000 88.827 -11.1512
8120.000000 88.849 -16.2800
8250.000000 88.687 -22.5193
8380.000000 88.282 -28.9397
8500.000000 87.689 -34.4377
8620.000000 86.917 -39.0400
8750.000000 85.942 -42.6890
8850.000000 85.142 -44.4927
9000.000000 83.936 -45.6789
9120.000000 83.013 -45.5100
9250.000000 82.087 -44.4475
9380.000000 81.258 -42.6866
9500.000000 80.585 -40.6094
9620.000000 80.004 -38.2432
9750.000000 79.473 -35.4859
9880.000000 79.037 -32.6224
10000.000000 78.713 -29.9426
10150.000000 78.412 -26.5958
10300.000000 78.232 -23.3578
10440.000000 78.170 -20.5865
10600.000000 78.214 -17.9281
10750.000000 78.342 -16.1222
10900.000000 78.523 -15.0885
11060.000000 78.731 -14.8311
11200.000000 78.896 -15.2207
11380.000000 79.065 -16.3133
11500.000000 79.161 -17.2743
11720.000000 79.346 -19.4712
11800.000000 79.427 -20.4876
12060.000000 79.717 -25.2939
12200.000000 79.829 -29.1791
12410.000000 79.776 -36.7310
12500.000000 79.631 -40.3741
12650.000000 79.196 -46.4652
12800.000000 78.530 -51.9636
13150.000000 76.425 -60.0582
13200.000000 76.102 -60.6326
13400.000000 74.851 -61.7149
13600.000000 73.723 -61.2786
13800.000000 72.766 -59.7962
14000.000000 72.006 -57.6104
14300.000000 71.270 -53.7379
14500.000000 71.053 -51.1699
14750.000000 71.122 -48.2745
15000.000000 71.627 -46.2000
15250.000000 72.638 -45.8844
15500.000000 74.162 -48.5409
15750.000000 76.154 -55.6100
16000.000000 78.429 -69.1368
16250.000000 80.622 -91.2642
16500.000000 82.351 -123.7001
16750.000000 83.086 -168.4683
17000.000000 81.963 137.9152
17250.000000 78.459 90.9891
17500.000000 73.183 57.7810
17750.000000 67.364 30.2944
18000.000000 61.931 1.3038
18250.000000 57.346 -30.9687
18500.000000 54.255 -65.4415
18750.000000 52.933 -100.4343
19000.000000 52.428 -133.1877
19250.000000 52.009 -163.5500
19500.000000 51.271 167.1475
19750.000000 50.150 141.6195
