* Measurement data measured by REW V5.20.9
* Source: Headset (USB-C to 3.5mm Headphone Jack Adapter), MICROPHONE (Master Volume), L, volume: 0.260. Timing signal peak level -28.1 dBFS, measurement signal peak level -26.2 dBFS
* Format: 256k Log Swept Sine, 1 sweep at -12.0 dBFS using an acoustic timing reference
* Dated: 06/01/2024 4:23:20 PM
* REW Settings:
*  C-weighting compensation: Off
*  Target level: 75.0 dB
* Note: ; Delay -0.0299 ms (-10 mm, -0.4 in) using estimated IR delay relative to Acoustic reference on SPEAKER L with no timing offset
* Measurement: Turbo 0110 L
* Smoothing: 1/24 octave
* Frequency Step: 1/48 octave
* Start Frequency: 1.000 Hz
*
* Freq(Hz) SPL(dB) Phase(degrees)
1.000000 51.302 -104.2375
1.015000 51.537 -105.7941
1.030000 51.770 -107.3013
1.044000 51.984 -108.6585
1.060000 52.226 -110.1448
1.075000 52.449 -111.4695
1.090000 52.667 -112.7218
1.106000 52.896 -113.9726
1.120000 53.094 -115.0007
1.138000 53.349 -116.2391
1.150000 53.518 -117.0162
1.172000 53.826 -118.3491
1.180000 53.938 -118.8066
1.206000 54.299 -120.2047
1.220000 54.492 -120.9073
1.241000 54.781 -121.9057
1.250000 54.903 -122.3158
1.265000 55.107 -122.9794
1.280000 55.309 -123.6221
1.315000 55.777 -125.0663
1.320000 55.843 -125.2688
1.340000 56.106 -126.0759
1.360000 56.366 -126.8869
1.380000 56.624 -127.7126
1.400000 56.879 -128.5639
1.430000 57.255 -129.9130
1.450000 57.502 -130.8764
1.475000 57.807 -132.1658
1.500000 58.107 -133.5077
1.525000 58.402 -134.8836
1.550000 58.693 -136.2860
1.575000 58.981 -137.7077
1.600000 59.263 -139.1412
1.625000 59.542 -140.5791
1.650000 59.817 -142.0142
1.675000 60.088 -143.4388
1.700000 60.355 -144.8458
1.725000 60.618 -146.2276
1.750000 60.877 -147.5770
1.775000 61.132 -148.8864
1.800000 61.384 -150.1486
1.825000 61.632 -151.3561
1.850000 61.876 -152.5065
1.875000 62.115 -153.6103
1.900000 62.350 -154.6723
1.925000 62.581 -155.6971
1.950000 62.808 -156.6890
1.975000 63.031 -157.6525
2.000000 63.251 -158.5923
2.030000 63.509 -159.6948
2.060000 63.763 -160.7773
2.090000 64.012 -161.8473
2.120000 64.256 -162.9127
2.140000 64.417 -163.6242
2.180000 64.734 -165.0605
2.200000 64.890 -165.7898
2.240000 65.195 -167.2515
2.270000 65.418 -168.3418
2.300000 65.636 -169.4256
2.330000 65.849 -170.5018
2.360000 66.058 -171.5690
2.400000 66.330 -172.9761
2.430000 66.530 -174.0179
2.470000 66.790 -175.3866
2.500000 66.982 -176.3963
2.540000 67.234 -177.7178
2.580000 67.480 -179.0095
2.620000 67.720 179.7215
2.650000 67.895 178.7839
2.690000 68.122 177.5539
2.720000 68.289 176.6470
2.760000 68.507 175.4597
2.800000 68.719 174.2985
2.850000 68.978 172.8856
2.900000 69.232 171.5177
2.950000 69.481 170.1987
3.000000 69.721 168.9393
3.040000 69.908 167.9708
3.070000 70.046 167.2636
3.110000 70.225 166.3425
3.150000 70.401 165.4416
3.200000 70.616 164.3359
3.250000 70.828 163.2438
3.300000 71.037 162.1554
3.350000 71.241 161.0711
3.400000 71.440 159.9993
3.450000 71.634 158.9445
3.500000 71.825 157.9116
3.550000 72.012 156.9050
3.600000 72.196 155.9296
3.650000 72.379 154.9898
3.700000 72.560 154.0932
3.750000 72.737 153.2429
3.820000 72.980 152.1123
3.870000 73.151 151.3340
3.950000 73.420 150.1122
4.000000 73.586 149.3477
4.060000 73.783 148.4173
4.120000 73.977 147.4876
4.180000 74.169 146.5648
4.250000 74.388 145.5016
4.310000 74.573 144.6059
4.370000 74.756 143.7281
4.440000 74.965 142.7321
4.500000 75.142 141.9037
4.550000 75.287 141.2269
4.620000 75.487 140.2932
4.680000 75.655 139.4992
4.750000 75.847 138.5719
4.820000 76.034 137.6386
4.870000 76.165 136.9719
4.940000 76.345 136.0422
5.000000 76.496 135.2525
5.080000 76.692 134.2157
5.150000 76.859 133.3286
5.220000 77.021 132.4563
5.300000 77.201 131.4760
5.380000 77.375 130.5151
5.450000 77.523 129.6913
5.520000 77.668 128.8845
5.600000 77.828 127.9809
5.700000 78.021 126.8804
5.800000 78.208 125.8148
5.900000 78.391 124.7870
6.000000 78.567 123.7972
6.080000 78.704 123.0310
6.150000 78.822 122.3781
6.220000 78.939 121.7404
6.300000 79.071 121.0335
6.400000 79.233 120.1835
6.500000 79.393 119.3597
6.600000 79.551 118.5506
6.700000 79.707 117.7587
6.800000 79.862 116.9859
6.900000 80.015 116.2246
7.000000 80.167 115.4686
7.100000 80.317 114.7236
7.200000 80.465 113.9861
7.300000 80.611 113.2499
7.400000 80.754 112.5110
7.500000 80.894 111.7726
7.620000 81.059 110.8893
7.750000 81.232 109.9379
7.880000 81.400 108.9900
8.000000 81.549 108.1226
8.120000 81.694 107.2665
8.250000 81.845 106.3488
8.380000 81.991 105.4465
8.500000 82.122 104.6319
8.620000 82.248 103.8327
8.750000 82.381 102.9852
8.850000 82.481 102.3470
9.000000 82.628 101.4126
9.120000 82.743 100.6812
9.250000 82.865 99.9035
9.380000 82.985 99.1422
9.500000 83.094 98.4497
9.620000 83.202 97.7656
9.750000 83.317 97.0353
9.880000 83.431 96.3120
10.000000 83.534 95.6492
10.150000 83.662 94.8283
10.300000 83.786 94.0136
10.440000 83.901 93.2587
10.600000 84.028 92.4021
10.750000 84.145 91.6044
10.900000 84.260 90.8123
11.060000 84.379 89.9746
11.200000 84.480 89.2473
11.380000 84.607 88.3229
11.500000 84.690 87.7131
11.720000 84.836 86.6123
11.800000 84.887 86.2188
12.060000 85.050 84.9650
12.200000 85.134 84.3104
12.410000 85.258 83.3549
12.500000 85.310 82.9561
12.650000 85.396 82.3062
12.800000 85.481 81.6717
13.150000 85.679 80.2464
13.200000 85.707 80.0466
13.400000 85.821 79.2582
13.600000 85.934 78.4745
13.800000 86.048 77.6909
14.000000 86.159 76.9019
14.300000 86.322 75.7068
14.500000 86.426 74.9039
14.750000 86.550 73.9047
15.000000 86.666 72.9172
15.250000 86.775 71.9553
15.500000 86.878 71.0249
15.750000 86.977 70.1281
16.000000 87.073 69.2641
16.250000 87.167 68.4256
16.500000 87.259 67.6079
16.750000 87.349 66.8045
17.000000 87.438 66.0115
17.250000 87.523 65.2283
17.500000 87.606 64.4548
17.750000 87.687 63.6932
18.000000 87.764 62.9442
18.250000 87.840 62.2088
18.500000 87.913 61.4866
18.750000 87.985 60.7765
19.000000 88.055 60.0772
19.250000 88.124 59.3865
19.500000 88.192 58.7031
19.750000 88.258 58.0258
20.000000 88.323 57.3533
20.299999 88.398 56.5528
20.600000 88.471 55.7604
20.900000 88.541 54.9780
21.200001 88.608 54.2083
21.400000 88.651 53.7042
21.799999 88.734 52.7195
22.000000 88.775 52.2395
22.400000 88.854 51.3033
22.700001 88.912 50.6185
23.000000 88.970 49.9444
23.299999 89.028 49.2768
23.600000 89.084 48.6130
24.000000 89.156 47.7322
24.299999 89.208 47.0770
24.700001 89.272 46.2179
25.000000 89.318 45.5905
25.400000 89.376 44.7814
25.799999 89.433 43.9994
26.200001 89.491 43.2306
26.500000 89.534 42.6541
26.900000 89.588 41.8821
27.200001 89.626 41.3052
27.600000 89.673 40.5502
28.000000 89.716 39.8220
28.500000 89.769 38.9452
29.000000 89.821 38.0845
29.500000 89.869 37.2332
30.000000 89.914 36.4085
30.400000 89.949 35.7733
30.700001 89.976 35.3030
31.100000 90.012 34.6667
31.500000 90.044 34.0144
32.000000 90.076 33.2088
32.500000 90.099 32.4786
33.000000 90.127 31.8408
33.500000 90.170 31.2187
34.000000 90.221 30.5107
34.500000 90.263 29.7078
35.000000 90.287 28.9009
35.500000 90.301 28.1858
36.000000 90.320 27.5605
36.500000 90.350 26.9493
37.000000 90.383 26.2922
37.500000 90.411 25.6023
38.200001 90.441 24.6687
38.700001 90.460 24.0447
39.500000 90.494 23.0698
40.000000 90.514 22.4671
40.599998 90.535 21.7631
41.200001 90.554 21.0795
41.799999 90.572 20.4100
42.500000 90.591 19.6520
43.099998 90.606 19.0196
43.700001 90.619 18.3910
44.400002 90.631 17.6697
45.000000 90.639 17.0735
45.500000 90.646 16.5810
46.200001 90.656 15.8784
46.799999 90.661 15.2737
47.500000 90.666 14.5720
48.200001 90.667 13.8441
48.700001 90.660 13.3264
49.400002 90.642 12.7000
50.000000 90.636 12.2720
50.799999 90.655 11.6847
51.500000 90.676 11.0411
52.200001 90.684 10.3636
53.000000 90.685 9.6597
53.799999 90.688 8.9992
54.500000 90.689 8.4327
55.200001 90.688 7.8858
56.000000 90.685 7.2765
57.000000 90.678 6.5332
58.000000 90.668 5.8066
59.000000 90.657 5.0750
60.000000 90.644 4.3454
60.799999 90.633 3.7656
61.500000 90.623 3.2657
62.200001 90.613 2.7811
63.000000 90.604 2.2434
64.000000 90.593 1.5762
65.000000 90.580 0.9311
66.000000 90.568 0.3113
67.000000 90.553 -0.3376
68.000000 90.527 -0.9709
69.000000 90.498 -1.5448
70.000000 90.473 -2.1122
71.000000 90.447 -2.6853
72.000000 90.421 -3.2529
73.000000 90.395 -3.8107
74.000000 90.369 -4.3494
75.000000 90.345 -4.8737
76.199997 90.317 -5.4951
77.500000 90.283 -6.1425
78.800003 90.250 -6.7643
80.000000 90.216 -7.3431
81.199997 90.177 -7.8885
82.500000 90.136 -8.4480
83.800003 90.096 -8.9920
85.000000 90.060 -9.4955
86.199997 90.022 -10.0016
87.500000 89.981 -10.5167
88.500000 89.954 -10.8989
90.000000 89.919 -11.4828
91.199997 89.894 -11.9668
92.500000 89.865 -12.5004
93.800003 89.835 -13.0192
95.000000 89.804 -13.5023
96.199997 89.769 -13.9937
97.500000 89.723 -14.5231
98.800003 89.674 -15.0325
100.000000 89.629 -15.4838
101.500000 89.578 -16.0519
103.000000 89.527 -16.6253
104.400002 89.478 -17.1301
106.000000 89.419 -17.6652
107.500000 89.363 -18.1357
109.000000 89.308 -18.5991
110.599998 89.247 -19.1004
112.000000 89.192 -19.5303
113.800003 89.123 -20.0493
115.000000 89.077 -20.3821
117.199997 88.993 -20.9760
118.000000 88.962 -21.1873
120.599998 88.859 -21.8676
122.000000 88.803 -22.2225
124.099998 88.721 -22.7335
125.000000 88.686 -22.9467
126.500000 88.627 -23.2916
128.000000 88.567 -23.6265
131.500000 88.423 -24.4250
132.000000 88.401 -24.5377
134.000000 88.315 -24.9532
136.000000 88.236 -25.3382
138.000000 88.158 -25.7304
140.000000 88.079 -26.1022
143.000000 87.956 -26.6171
145.000000 87.868 -26.9484
147.500000 87.751 -27.3773
150.000000 87.633 -27.7571
152.500000 87.536 -28.0754
155.000000 87.441 -28.4032
157.500000 87.336 -28.6932
160.000000 87.227 -28.9570
162.500000 87.120 -29.1898
165.000000 87.011 -29.3745
167.500000 86.898 -29.5205
170.000000 86.787 -29.6661
172.500000 86.677 -29.7789
175.000000 86.566 -29.8107
177.500000 86.454 -29.7486
180.000000 86.347 -29.5826
182.500000 86.256 -29.3071
185.000000 86.190 -28.9493
187.500000 86.156 -28.5726
190.000000 86.159 -28.2917
192.500000 86.187 -28.2418
195.000000 86.220 -28.4996
197.500000 86.234 -29.0133
200.000000 86.216 -29.6520
203.000000 86.149 -30.4302
206.000000 86.047 -31.1104
209.000000 85.931 -31.6589
212.000000 85.810 -32.0828
214.000000 85.728 -32.3081
218.000000 85.562 -32.6592
220.000000 85.480 -32.7979
224.000000 85.319 -33.0244
227.000000 85.202 -33.1538
230.000000 85.086 -33.2522
233.000000 84.973 -33.3308
236.000000 84.861 -33.3816
240.000000 84.716 -33.3992
243.000000 84.609 -33.3998
247.000000 84.473 -33.3771
250.000000 84.372 -33.3441
254.000000 84.228 -33.3015
258.000000 84.086 -33.2360
262.000000 83.950 -33.1357
265.000000 83.848 -33.0450
269.000000 83.715 -32.9084
272.000000 83.619 -32.7901
276.000000 83.491 -32.6119
280.000000 83.363 -32.4115
285.000000 83.206 -32.1335
290.000000 83.050 -31.8274
295.000000 82.894 -31.4869
300.000000 82.741 -31.1104
304.000000 82.623 -30.7874
307.000000 82.535 -30.5341
311.000000 82.421 -30.1787
315.000000 82.308 -29.7980
320.000000 82.171 -29.2773
325.000000 82.038 -28.7100
330.000000 81.912 -28.1045
335.000000 81.794 -27.4747
340.000000 81.683 -26.8407
345.000000 81.581 -26.2036
350.000000 81.485 -25.5728
355.000000 81.397 -25.0031
360.000000 81.311 -24.4443
365.000000 81.223 -23.8627
370.000000 81.137 -23.2578
375.000000 81.054 -22.6293
382.000000 80.946 -21.7339
387.000000 80.879 -21.0994
395.000000 80.786 -20.1694
400.000000 80.731 -19.6667
406.000000 80.660 -19.1246
412.000000 80.578 -18.6050
418.000000 80.482 -18.0498
425.000000 80.366 -17.3160
431.000000 80.266 -16.6302
437.000000 80.172 -15.8956
444.000000 80.075 -14.9832
450.000000 79.998 -14.1744
455.000000 79.931 -13.4528
462.000000 79.844 -12.4150
468.000000 79.779 -11.5267
475.000000 79.710 -10.4904
482.000000 79.650 -9.4525
487.000000 79.612 -8.7095
494.000000 79.564 -7.6727
500.000000 79.527 -6.7872
508.000000 79.483 -5.5958
515.000000 79.453 -4.5566
522.000000 79.429 -3.5334
530.000000 79.409 -2.3712
538.000000 79.395 -1.2282
545.000000 79.387 -0.2480
552.000000 79.383 0.7313
560.000000 79.387 1.8529
570.000000 79.398 3.2073
580.000000 79.416 4.5297
590.000000 79.443 5.8295
600.000000 79.478 7.0874
608.000000 79.510 8.0624
615.000000 79.540 8.8998
622.000000 79.572 9.7244
630.000000 79.612 10.6458
640.000000 79.668 11.7444
650.000000 79.729 12.7977
660.000000 79.793 13.8639
670.000000 79.859 14.8968
680.000000 79.929 15.8781
690.000000 80.003 16.8189
700.000000 80.080 17.7362
710.000000 80.158 18.6262
720.000000 80.238 19.4856
730.000000 80.321 20.3142
740.000000 80.405 21.1191
750.000000 80.491 21.9049
762.000000 80.598 22.7872
775.000000 80.717 23.7000
788.000000 80.836 24.5856
800.000000 80.949 25.3580
812.000000 81.064 26.0936
825.000000 81.190 26.8540
838.000000 81.316 27.5759
850.000000 81.434 28.2082
862.000000 81.555 28.8083
875.000000 81.687 29.4191
885.000000 81.788 29.8585
900.000000 81.940 30.4662
912.000000 82.063 30.9142
925.000000 82.197 31.3629
938.000000 82.331 31.7674
950.000000 82.454 32.1031
962.000000 82.576 32.3979
975.000000 82.708 32.6765
988.000000 82.838 32.9193
1000.000000 82.957 33.1088
1015.000000 83.102 33.3007
1030.000000 83.242 33.4392
1044.000000 83.370 33.5218
1060.000000 83.511 33.5836
1075.000000 83.639 33.6049
1090.000000 83.761 33.5852
1106.000000 83.885 33.5313
1120.000000 83.989 33.4615
1138.000000 84.116 33.3458
1150.000000 84.196 33.2516
1172.000000 84.331 33.0466
1180.000000 84.377 32.9679
1206.000000 84.517 32.7017
1220.000000 84.587 32.5524
1241.000000 84.683 32.3299
1250.000000 84.721 32.2375
1265.000000 84.781 32.0912
1280.000000 84.837 31.9526
1315.000000 84.956 31.6582
1320.000000 84.971 31.6202
1340.000000 85.030 31.4795
1360.000000 85.085 31.3569
1380.000000 85.137 31.2544
1400.000000 85.187 31.1711
1430.000000 85.257 31.0772
1450.000000 85.301 31.0380
1475.000000 85.353 31.0110
1500.000000 85.402 31.0048
1525.000000 85.450 31.0250
1550.000000 85.497 31.0753
1575.000000 85.545 31.1650
1600.000000 85.596 31.2811
1625.000000 85.651 31.4040
1650.000000 85.710 31.5130
1675.000000 85.767 31.5953
1700.000000 85.819 31.6687
1725.000000 85.865 31.7620
1750.000000 85.909 31.8819
1775.000000 85.953 32.0169
1800.000000 86.001 32.1689
1825.000000 86.052 32.3470
1850.000000 86.107 32.5456
1875.000000 86.166 32.7610
1900.000000 86.229 32.9998
1925.000000 86.298 33.2589
1950.000000 86.373 33.5248
1975.000000 86.458 33.7771
2000.000000 86.549 33.9945
2030.000000 86.663 34.1974
2060.000000 86.780 34.3381
2090.000000 86.895 34.4330
2120.000000 87.009 34.5099
2140.000000 87.085 34.5598
2180.000000 87.240 34.6568
2200.000000 87.322 34.7029
2240.000000 87.495 34.7780
2270.000000 87.637 34.7939
2300.000000 87.788 34.7438
2330.000000 87.945 34.6074
2360.000000 88.106 34.3849
2400.000000 88.326 33.9725
2430.000000 88.499 33.5751
2470.000000 88.746 32.8555
2500.000000 88.940 32.0920
2540.000000 89.191 30.6715
2580.000000 89.399 28.7809
2620.000000 89.535 26.5498
2650.000000 89.579 24.7809
2690.000000 89.561 22.4810
2720.000000 89.494 20.9137
2760.000000 89.355 19.1597
2800.000000 89.182 17.8475
2850.000000 88.954 16.7684
2900.000000 88.737 16.1863
2950.000000 88.543 16.0040
3000.000000 88.383 16.1312
3040.000000 88.286 16.3805
3070.000000 88.230 16.6179
3110.000000 88.179 16.9648
3150.000000 88.152 17.3051
3200.000000 88.145 17.6702
3250.000000 88.162 17.9338
3300.000000 88.196 18.0715
3350.000000 88.241 18.0602
3400.000000 88.287 17.8859
3450.000000 88.326 17.5645
3500.000000 88.352 17.1298
3550.000000 88.364 16.6222
3600.000000 88.359 16.0768
3650.000000 88.340 15.5161
3700.000000 88.308 14.9584
3750.000000 88.263 14.4238
3820.000000 88.184 13.7463
3870.000000 88.120 13.3204
3950.000000 88.012 12.7173
4000.000000 87.942 12.3695
4060.000000 87.852 11.9740
4120.000000 87.756 11.6161
4180.000000 87.652 11.3097
4250.000000 87.524 11.0296
4310.000000 87.410 10.8615
4370.000000 87.295 10.7611
4440.000000 87.158 10.7305
4500.000000 87.042 10.7769
4550.000000 86.946 10.8646
4620.000000 86.814 11.0575
4680.000000 86.704 11.2843
4750.000000 86.580 11.6105
4820.000000 86.461 12.0033
4870.000000 86.379 12.3225
4940.000000 86.270 12.8185
5000.000000 86.180 13.2836
5080.000000 86.066 13.9587
5150.000000 85.973 14.6077
5220.000000 85.885 15.3134
5300.000000 85.792 16.1964
5380.000000 85.706 17.1791
5450.000000 85.638 18.1666
5520.000000 85.589 19.3303
5600.000000 85.587 20.8552
5700.000000 85.698 22.5681
5800.000000 85.850 23.6384
5900.000000 85.992 24.3403
6000.000000 86.119 24.8319
6080.000000 86.214 25.1813
6150.000000 86.303 25.4594
6220.000000 86.398 25.6891
6300.000000 86.515 25.8640
6400.000000 86.668 25.9127
6500.000000 86.822 25.7548
6600.000000 86.970 25.4022
6700.000000 87.105 24.8824
6800.000000 87.221 24.2310
6900.000000 87.317 23.5071
7000.000000 87.395 22.8163
7100.000000 87.478 22.2743
7200.000000 87.608 21.7132
7300.000000 87.758 20.7902
7400.000000 87.893 19.6406
7500.000000 88.029 18.3788
7620.000000 88.210 16.6013
7750.000000 88.427 14.1270
7880.000000 88.637 10.8376
8000.000000 88.779 6.9234
8120.000000 88.818 2.1571
8250.000000 88.677 -3.7370
8380.000000 88.295 -9.8719
8500.000000 87.719 -15.1523
8620.000000 86.959 -19.5618
8750.000000 85.990 -23.0065
8850.000000 85.189 -24.6423
9000.000000 83.978 -25.5461
9120.000000 83.049 -25.1266
9250.000000 82.119 -23.7650
9380.000000 81.287 -21.6823
9500.000000 80.613 -19.3077
9620.000000 80.033 -16.6508
9750.000000 79.503 -13.5804
9880.000000 79.069 -10.4084
10000.000000 78.747 -7.4499
10150.000000 78.448 -3.7682
10300.000000 78.265 -0.2117
10440.000000 78.200 2.8539
10600.000000 78.242 5.8564
10750.000000 78.368 8.0020
10900.000000 78.545 9.3753
11060.000000 78.747 9.9778
11200.000000 78.908 9.8851
11380.000000 79.071 9.1908
11500.000000 79.160 8.4971
11720.000000 79.332 6.7789
11800.000000 79.407 5.9382
12060.000000 79.682 1.7418
12200.000000 79.788 -1.7875
12410.000000 79.731 -8.8068
12500.000000 79.583 -12.2337
12650.000000 79.145 -17.9753
12800.000000 78.477 -23.1295
13150.000000 76.356 -30.4436
13200.000000 76.030 -30.8992
13400.000000 74.763 -31.4877
13600.000000 73.619 -30.5175
13800.000000 72.644 -28.4533
14000.000000 71.866 -25.6553
14300.000000 71.112 -20.8317
14500.000000 70.896 -17.5851
14750.000000 70.975 -13.9350
15000.000000 71.483 -11.1031
15250.000000 72.495 -9.9580
15500.000000 74.028 -11.6490
15750.000000 76.079 -17.5805
16000.000000 78.486 -29.9875
16250.000000 80.848 -51.4590
16500.000000 82.693 -84.0200
16750.000000 83.451 -129.2450
17000.000000 82.308 176.9108
17250.000000 78.776 129.9788
17500.000000 73.464 96.8441
17750.000000 67.590 69.4369
18000.000000 62.075 40.5524
18250.000000 57.367 8.3878
18500.000000 54.138 -25.7638
18750.000000 52.751 -59.9415
19000.000000 52.235 -91.9861
19250.000000 51.803 -121.6620
19500.000000 51.055 -149.9785
19750.000000 49.886 -174.6917
