* Measurement data measured by REW V5.20.9
* Source: USB-C to 3.5mm Headphone Jack Adapter, USB-C to 3.5mm Headphone Jack Adapter, 0, volume: 0.138
* Format: 256k Log Swept Sine, 1 sweep at -12.0 dBFS with no timing reference
* Dated: 23/07/2022 11:23:40 AM
* REW Settings:
*  C-weighting compensation: Off
*  Target level: 75.0 dB
* Note: ; 
* Measurement: U6t R
* Smoothing: 1/24 octave
* Frequency Step: 1/48 octave
* Start Frequency: 1.000 Hz
*
* Freq(Hz) SPL(dB) Phase(degrees)
1.000000 72.799 177.1238
1.015000 72.779 177.7721
1.030000 72.772 178.4743
1.044000 72.776 179.1824
1.060000 72.790 -179.9531
1.075000 72.814 -179.0956
1.090000 72.847 -178.1996
1.106000 72.891 -177.2086
1.120000 72.938 -176.3178
1.138000 73.007 -175.1488
1.150000 73.058 -174.3599
1.172000 73.163 -172.9060
1.180000 73.204 -172.3781
1.206000 73.347 -170.6819
1.220000 73.430 -169.7894
1.241000 73.560 -168.4923
1.250000 73.617 -167.9557
1.265000 73.715 -167.0921
1.280000 73.815 -166.2727
1.315000 74.052 -164.5694
1.320000 74.087 -164.3535
1.340000 74.223 -163.5679
1.360000 74.362 -162.8986
1.380000 74.511 -162.2946
1.400000 74.672 -161.7514
1.430000 74.929 -161.0465
1.450000 75.111 -160.6477
1.475000 75.346 -160.2262
1.500000 75.588 -159.8874
1.525000 75.835 -159.6281
1.550000 76.084 -159.4453
1.575000 76.333 -159.3356
1.600000 76.580 -159.2960
1.625000 76.822 -159.3232
1.650000 77.056 -159.4142
1.675000 77.280 -159.5658
1.700000 77.496 -159.7890
1.725000 77.711 -160.1177
1.750000 77.925 -160.5445
1.775000 78.138 -161.0594
1.800000 78.350 -161.6528
1.825000 78.559 -162.3146
1.850000 78.765 -163.0350
1.875000 78.969 -163.8041
1.900000 79.168 -164.6121
1.925000 79.364 -165.4490
1.950000 79.554 -166.3051
1.975000 79.740 -167.1703
2.000000 79.919 -168.0349
2.030000 80.127 -169.0641
2.060000 80.326 -170.1367
2.090000 80.518 -171.2631
2.120000 80.703 -172.4365
2.140000 80.823 -173.2416
2.180000 81.055 -174.8978
2.200000 81.167 -175.7450
2.240000 81.384 -177.4675
2.270000 81.541 -178.7763
2.300000 81.694 179.9077
2.330000 81.843 178.5913
2.360000 81.989 177.2805
2.400000 82.175 175.5074
2.430000 82.307 174.1501
2.470000 82.477 172.3119
2.500000 82.598 170.9179
2.540000 82.753 169.0472
2.580000 82.902 167.1725
2.620000 83.044 165.3045
2.650000 83.148 163.9143
2.690000 83.282 162.0835
2.720000 83.379 160.7222
2.760000 83.502 158.9044
2.800000 83.619 157.0878
2.850000 83.756 154.8262
2.900000 83.885 152.5835
2.950000 84.008 150.3691
3.000000 84.125 148.1925
3.040000 84.216 146.4836
3.070000 84.281 145.2128
3.110000 84.363 143.5299
3.150000 84.440 141.8640
3.200000 84.532 139.8117
3.250000 84.619 137.8003
3.300000 84.703 135.8377
3.350000 84.785 133.9319
3.400000 84.865 132.0857
3.450000 84.940 130.2885
3.500000 85.012 128.5403
3.550000 85.081 126.8416
3.600000 85.148 125.1930
3.650000 85.215 123.5951
3.700000 85.284 122.0485
3.750000 85.352 120.5568
3.820000 85.446 118.5608
3.870000 85.512 117.1958
3.950000 85.619 115.1060
4.000000 85.689 113.8527
4.060000 85.777 112.3984
4.120000 85.867 111.0165
4.180000 85.960 109.7013
4.250000 86.071 108.2334
4.310000 86.170 107.0171
4.370000 86.272 105.8252
4.440000 86.396 104.4757
4.500000 86.506 103.3667
4.550000 86.600 102.4680
4.620000 86.734 101.2360
4.680000 86.849 100.1927
4.750000 86.985 98.9816
4.820000 87.124 97.7938
4.870000 87.224 96.9584
4.940000 87.365 95.8024
5.000000 87.484 94.8199
5.080000 87.638 93.5157
5.150000 87.772 92.3815
5.220000 87.904 91.2576
5.300000 88.050 89.9898
5.380000 88.191 88.7442
5.450000 88.308 87.6698
5.520000 88.421 86.6070
5.600000 88.545 85.4147
5.700000 88.692 83.9724
5.800000 88.828 82.5895
5.900000 88.954 81.2574
6.000000 89.073 79.9859
6.080000 89.163 79.0196
6.150000 89.238 78.2109
6.220000 89.309 77.4346
6.300000 89.387 76.5855
6.400000 89.482 75.5787
6.500000 89.574 74.6391
6.600000 89.662 73.7618
6.700000 89.750 72.9301
6.800000 89.838 72.1374
6.900000 89.924 71.3938
7.000000 90.011 70.6815
7.100000 90.097 69.9833
7.200000 90.184 69.3091
7.300000 90.270 68.6525
7.400000 90.356 67.9995
7.500000 90.440 67.3480
7.620000 90.540 66.5733
7.750000 90.644 65.7317
7.880000 90.745 64.8844
8.000000 90.834 64.0997
8.120000 90.918 63.3119
8.250000 91.004 62.4539
8.380000 91.084 61.5948
8.500000 91.153 60.8025
8.620000 91.216 60.0101
8.750000 91.280 59.1574
8.850000 91.324 58.5057
9.000000 91.385 57.5362
9.120000 91.428 56.7753
9.250000 91.470 55.9637
9.380000 91.508 55.1708
9.500000 91.540 54.4611
9.620000 91.569 53.7708
9.750000 91.599 53.0467
9.880000 91.628 52.3511
10.000000 91.655 51.7309
10.150000 91.691 50.9754
10.300000 91.731 50.2467
10.440000 91.771 49.5685
10.600000 91.824 48.7920
10.750000 91.877 48.0481
10.900000 91.935 47.2703
11.060000 91.998 46.4060
11.200000 92.053 45.6085
11.380000 92.123 44.5326
11.500000 92.165 43.7936
11.720000 92.233 42.3926
11.800000 92.254 41.8853
12.060000 92.309 40.2408
12.200000 92.332 39.3956
12.410000 92.357 38.1870
12.500000 92.367 37.7010
12.650000 92.382 36.9331
12.800000 92.399 36.2112
13.150000 92.449 34.6931
13.200000 92.458 34.4887
13.400000 92.499 33.6959
13.600000 92.546 32.9103
13.800000 92.598 32.1280
14.000000 92.652 31.3356
14.300000 92.730 30.1409
14.500000 92.779 29.3479
14.750000 92.835 28.3720
15.000000 92.887 27.4184
15.250000 92.934 26.4830
15.500000 92.976 25.5625
15.750000 93.010 24.6539
16.000000 93.034 23.7705
16.250000 93.048 22.9322
16.500000 93.053 22.1570
16.750000 93.055 21.4632
17.000000 93.057 20.8418
17.250000 93.065 20.2663
17.500000 93.079 19.7057
17.750000 93.099 19.1171
18.000000 93.118 18.4813
18.250000 93.132 17.8067
18.500000 93.137 17.1124
18.750000 93.132 16.4422
19.000000 93.122 15.8293
19.250000 93.113 15.2792
19.500000 93.110 14.7843
19.750000 93.118 14.3008
20.000000 93.136 13.7783
20.299999 93.164 13.0599
20.600000 93.187 12.2300
20.900000 93.193 11.3372
21.200001 93.178 10.4732
21.400000 93.160 9.9628
21.799999 93.122 9.1485
22.000000 93.112 8.8317
22.400000 93.122 8.2723
22.700001 93.155 7.7895
23.000000 93.199 7.1739
23.299999 93.238 6.4118
23.600000 93.260 5.5489
24.000000 93.255 4.3889
24.299999 93.230 3.6141
24.700001 93.188 2.7831
25.000000 93.163 2.2914
25.400000 93.149 1.7235
25.799999 93.156 1.1417
26.200001 93.174 0.4814
26.500000 93.187 -0.0630
26.900000 93.201 -0.8228
27.200001 93.208 -1.3996
27.600000 93.214 -2.1690
28.000000 93.217 -2.9416
28.500000 93.212 -3.9047
29.000000 93.195 -4.8145
29.500000 93.171 -5.6192
30.000000 93.152 -6.3342
30.400000 93.143 -6.8930
30.700001 93.136 -7.3286
31.100000 93.122 -7.9342
31.500000 93.098 -8.5366
32.000000 93.056 -9.2173
32.500000 93.012 -9.7893
33.000000 92.979 -10.3162
33.500000 92.955 -10.8908
34.000000 92.930 -11.5436
34.500000 92.895 -12.2226
35.000000 92.857 -12.8661
35.500000 92.826 -13.4809
36.000000 92.805 -14.1317
36.500000 92.785 -14.8535
37.000000 92.756 -15.5969
37.500000 92.722 -16.2795
38.200001 92.688 -17.1212
38.700001 92.679 -17.7500
39.500000 92.655 -18.9335
40.000000 92.614 -19.6631
40.599998 92.547 -20.3424
41.200001 92.493 -20.8071
41.799999 92.466 -21.2243
42.500000 92.452 -21.8531
43.099998 92.433 -22.5190
43.700001 92.398 -23.2139
44.400002 92.341 -23.9660
45.000000 92.287 -24.5164
45.500000 92.246 -24.9048
46.200001 92.204 -25.4053
46.799999 92.181 -25.8883
47.500000 92.148 -26.5470
48.200001 92.099 -27.2057
48.700001 92.060 -27.6329
49.400002 92.005 -28.1979
50.000000 91.954 -28.6609
50.799999 91.888 -29.1934
51.500000 91.848 -29.6294
52.200001 91.822 -30.1866
53.000000 91.781 -30.9814
53.799999 91.718 -31.7563
54.500000 91.661 -32.3480
55.200001 91.610 -32.8997
56.000000 91.556 -33.5210
57.000000 91.487 -34.2672
58.000000 91.421 -34.9396
59.000000 91.364 -35.6041
60.000000 91.303 -36.3011
60.799999 91.248 -36.8321
61.500000 91.201 -37.2728
62.200001 91.154 -37.7037
63.000000 91.100 -38.1901
64.000000 91.030 -38.7888
65.000000 90.958 -39.3533
66.000000 90.891 -39.9102
67.000000 90.823 -40.5090
68.000000 90.752 -41.0790
69.000000 90.696 -41.6191
70.000000 90.651 -42.2722
71.000000 90.589 -42.9973
72.000000 90.513 -43.5667
73.000000 90.455 -44.0065
74.000000 90.408 -44.5203
75.000000 90.344 -45.0724
76.199997 90.251 -45.5981
77.500000 90.162 -46.0893
78.800003 90.080 -46.6342
80.000000 90.007 -47.1935
81.199997 89.934 -47.7815
82.500000 89.853 -48.4004
83.800003 89.776 -48.9710
85.000000 89.706 -49.4644
86.199997 89.636 -49.9357
87.500000 89.558 -50.4356
88.500000 89.498 -50.8106
90.000000 89.411 -51.3771
91.199997 89.344 -51.8464
92.500000 89.271 -52.3410
93.800003 89.201 -52.8094
95.000000 89.137 -53.2348
96.199997 89.070 -53.6598
97.500000 88.990 -54.0907
98.800003 88.913 -54.4613
100.000000 88.855 -54.8231
101.500000 88.783 -55.3845
103.000000 88.700 -55.9249
104.400002 88.626 -56.3533
106.000000 88.548 -56.8308
107.500000 88.472 -57.2821
109.000000 88.393 -57.7019
110.599998 88.312 -58.1118
112.000000 88.246 -58.4702
113.800003 88.165 -58.9576
115.000000 88.108 -59.2880
117.199997 88.003 -59.8601
118.000000 87.964 -60.0680
120.599998 87.837 -60.7320
122.000000 87.768 -61.0762
124.099998 87.672 -61.5769
125.000000 87.632 -61.7940
126.500000 87.565 -62.1443
128.000000 87.497 -62.4507
131.500000 87.338 -63.0783
132.000000 87.315 -63.1789
134.000000 87.214 -63.5983
136.000000 87.116 -63.9738
138.000000 87.032 -64.3204
140.000000 86.954 -64.6410
143.000000 86.837 -65.0359
145.000000 86.752 -65.2795
147.500000 86.640 -65.5539
150.000000 86.530 -65.8012
152.500000 86.426 -65.9511
155.000000 86.329 -65.9122
157.500000 86.235 -65.5999
160.000000 86.185 -65.0367
162.500000 86.225 -64.5587
165.000000 86.347 -64.5132
167.500000 86.488 -65.0684
170.000000 86.576 -66.0866
172.500000 86.595 -67.2441
175.000000 86.565 -68.3402
177.500000 86.508 -69.2867
180.000000 86.440 -70.0679
182.500000 86.369 -70.6818
185.000000 86.302 -71.1974
187.500000 86.240 -71.7429
190.000000 86.177 -72.3405
192.500000 86.109 -72.9077
195.000000 86.043 -73.4080
197.500000 85.988 -73.9192
200.000000 85.935 -74.5142
203.000000 85.857 -75.0885
206.000000 85.788 -75.3169
209.000000 85.737 -75.4828
212.000000 85.676 -75.8931
214.000000 85.628 -76.2927
218.000000 85.556 -77.0846
220.000000 85.534 -77.3801
224.000000 85.488 -77.7234
227.000000 85.448 -77.9533
230.000000 85.402 -78.3163
233.000000 85.352 -78.6887
236.000000 85.333 -79.0384
240.000000 85.341 -79.8936
243.000000 85.300 -80.6985
247.000000 85.175 -81.1848
250.000000 85.078 -81.2062
254.000000 85.033 -81.3204
258.000000 85.071 -81.5171
262.000000 85.054 -81.7279
265.000000 85.014 -82.1061
269.000000 85.018 -82.7595
272.000000 85.041 -83.2252
276.000000 85.043 -83.8385
280.000000 85.034 -84.4540
285.000000 85.015 -84.9923
290.000000 84.984 -85.5069
295.000000 84.973 -86.2567
300.000000 84.976 -86.9505
304.000000 84.956 -87.5672
307.000000 84.937 -88.0284
311.000000 84.911 -88.5941
315.000000 84.884 -89.1287
320.000000 84.855 -89.7576
325.000000 84.832 -90.3622
330.000000 84.808 -90.9771
335.000000 84.784 -91.5765
340.000000 84.761 -92.1602
345.000000 84.742 -92.7404
350.000000 84.725 -93.3077
355.000000 84.710 -93.8472
360.000000 84.696 -94.3963
365.000000 84.681 -94.9603
370.000000 84.667 -95.5263
375.000000 84.654 -96.0853
382.000000 84.638 -96.8453
387.000000 84.629 -97.3818
395.000000 84.613 -98.2233
400.000000 84.602 -98.7529
406.000000 84.589 -99.3913
412.000000 84.575 -100.0229
418.000000 84.564 -100.6532
425.000000 84.550 -101.3713
431.000000 84.536 -101.9815
437.000000 84.525 -102.5950
444.000000 84.512 -103.3102
450.000000 84.500 -103.8998
455.000000 84.487 -104.3777
462.000000 84.469 -105.0393
468.000000 84.454 -105.6120
475.000000 84.436 -106.2827
482.000000 84.417 -106.9364
487.000000 84.405 -107.3920
494.000000 84.389 -108.0269
500.000000 84.372 -108.5630
508.000000 84.346 -109.2457
515.000000 84.324 -109.8336
522.000000 84.304 -110.4203
530.000000 84.279 -111.0658
538.000000 84.253 -111.6964
545.000000 84.228 -112.2499
552.000000 84.203 -112.7908
560.000000 84.174 -113.3596
570.000000 84.135 -114.0218
580.000000 84.092 -114.6971
590.000000 84.050 -115.3434
600.000000 84.014 -115.9442
608.000000 83.983 -116.4056
615.000000 83.952 -116.7921
622.000000 83.920 -117.1665
630.000000 83.884 -117.5806
640.000000 83.842 -118.0668
650.000000 83.800 -118.4886
660.000000 83.755 -118.8820
670.000000 83.710 -119.2647
680.000000 83.668 -119.6206
690.000000 83.625 -119.9436
700.000000 83.584 -120.2454
710.000000 83.544 -120.5138
720.000000 83.504 -120.7330
730.000000 83.464 -120.9233
740.000000 83.424 -121.0948
750.000000 83.391 -121.2315
762.000000 83.357 -121.3519
775.000000 83.319 -121.4553
788.000000 83.285 -121.5399
800.000000 83.256 -121.5882
812.000000 83.232 -121.5988
825.000000 83.211 -121.5848
838.000000 83.193 -121.5392
850.000000 83.184 -121.4771
862.000000 83.178 -121.4115
875.000000 83.176 -121.3261
885.000000 83.178 -121.2519
900.000000 83.186 -121.1372
912.000000 83.194 -121.0335
925.000000 83.207 -120.9088
938.000000 83.228 -120.7967
950.000000 83.249 -120.6995
962.000000 83.271 -120.6130
975.000000 83.297 -120.5296
988.000000 83.326 -120.4498
1000.000000 83.353 -120.3791
1015.000000 83.389 -120.3046
1030.000000 83.430 -120.2499
1044.000000 83.467 -120.2048
1060.000000 83.508 -120.1648
1075.000000 83.546 -120.1329
1090.000000 83.585 -120.1068
1106.000000 83.625 -120.0940
1120.000000 83.662 -120.0849
1138.000000 83.706 -120.0549
1150.000000 83.734 -120.0264
1172.000000 83.781 -119.9819
1180.000000 83.798 -119.9703
1206.000000 83.851 -119.9151
1220.000000 83.880 -119.8659
1241.000000 83.922 -119.7526
1250.000000 83.939 -119.6966
1265.000000 83.970 -119.6012
1280.000000 84.000 -119.4963
1315.000000 84.073 -119.1857
1320.000000 84.084 -119.1376
1340.000000 84.128 -118.9375
1360.000000 84.176 -118.7134
1380.000000 84.225 -118.4629
1400.000000 84.278 -118.1858
1430.000000 84.364 -117.7467
1450.000000 84.426 -117.4374
1475.000000 84.510 -117.0401
1500.000000 84.602 -116.6330
1525.000000 84.702 -116.2242
1550.000000 84.809 -115.8251
1575.000000 84.925 -115.4410
1600.000000 85.050 -115.0723
1625.000000 85.183 -114.7225
1650.000000 85.324 -114.4009
1675.000000 85.472 -114.1232
1700.000000 85.628 -113.8879
1725.000000 85.791 -113.7017
1750.000000 85.962 -113.5717
1775.000000 86.137 -113.5002
1800.000000 86.316 -113.4945
1825.000000 86.497 -113.5656
1850.000000 86.679 -113.7188
1875.000000 86.862 -113.9577
1900.000000 87.043 -114.2843
1925.000000 87.220 -114.6972
1950.000000 87.394 -115.1936
1975.000000 87.562 -115.7742
2000.000000 87.722 -116.4322
2030.000000 87.902 -117.3163
2060.000000 88.063 -118.2899
2090.000000 88.203 -119.3414
2120.000000 88.320 -120.4343
2140.000000 88.384 -121.1671
2180.000000 88.478 -122.5602
2200.000000 88.510 -123.1734
2240.000000 88.566 -124.1367
2270.000000 88.627 -124.6380
2300.000000 88.728 -125.0771
2330.000000 88.876 -125.6800
2360.000000 89.041 -126.6681
2400.000000 89.215 -128.5883
2430.000000 89.282 -130.2178
2470.000000 89.302 -132.2994
2500.000000 89.286 -133.7161
2540.000000 89.246 -135.4387
2580.000000 89.192 -137.0341
2620.000000 89.124 -138.5587
2650.000000 89.063 -139.6726
2690.000000 88.964 -141.1162
2720.000000 88.876 -142.1567
2760.000000 88.742 -143.4554
2800.000000 88.590 -144.6292
2850.000000 88.381 -145.9073
2900.000000 88.151 -146.9513
2950.000000 87.908 -147.7465
3000.000000 87.659 -148.2790
3040.000000 87.463 -148.5283
3070.000000 87.320 -148.6207
3110.000000 87.134 -148.6261
3150.000000 86.956 -148.5073
3200.000000 86.748 -148.2002
3250.000000 86.557 -147.7580
3300.000000 86.380 -147.2050
3350.000000 86.216 -146.5173
3400.000000 86.064 -145.6338
3450.000000 85.938 -144.5037
3500.000000 85.866 -143.1785
3550.000000 85.864 -141.8665
3600.000000 85.916 -140.8115
3650.000000 85.984 -140.0634
3700.000000 86.050 -139.4840
3750.000000 86.117 -138.9590
3820.000000 86.230 -138.3311
3870.000000 86.321 -137.9994
3950.000000 86.478 -137.6246
4000.000000 86.590 -137.4727
4060.000000 86.741 -137.4003
4120.000000 86.911 -137.4825
4180.000000 87.097 -137.7573
4250.000000 87.326 -138.3662
4310.000000 87.527 -139.1481
4370.000000 87.731 -140.1619
4440.000000 87.969 -141.6535
4500.000000 88.172 -143.2199
4550.000000 88.338 -144.7460
4620.000000 88.562 -147.2722
4680.000000 88.741 -149.8621
4750.000000 88.919 -153.4886
4820.000000 89.030 -157.8975
4870.000000 89.035 -161.5567
4940.000000 88.879 -167.2419
5000.000000 88.545 -172.2216
5080.000000 87.788 -177.9217
5150.000000 86.905 178.9218
5220.000000 85.959 177.8236
5300.000000 84.974 178.6613
5380.000000 84.195 -179.1388
5450.000000 83.694 -176.6936
5520.000000 83.344 -174.0870
5600.000000 83.112 -171.1724
5700.000000 83.053 -168.2169
5800.000000 83.056 -166.9942
5900.000000 82.898 -165.5410
6000.000000 83.017 -163.8501
6080.000000 83.054 -164.6549
6150.000000 82.772 -164.8374
6220.000000 82.476 -163.0124
6300.000000 82.401 -160.0106
6400.000000 82.586 -156.7688
6500.000000 82.916 -154.2927
6600.000000 83.344 -152.4600
6700.000000 83.857 -151.2921
6800.000000 84.440 -150.9122
6900.000000 85.074 -151.4814
7000.000000 85.723 -153.2046
7100.000000 86.332 -156.2214
7200.000000 86.828 -160.5309
7300.000000 87.139 -165.9007
7400.000000 87.208 -171.8099
7500.000000 87.028 -177.5574
7620.000000 86.536 176.5996
7750.000000 85.790 172.1230
7880.000000 84.959 169.6306
8000.000000 84.210 168.8191
8120.000000 83.524 169.0924
8250.000000 82.880 170.3312
8380.000000 82.373 172.3719
8500.000000 82.076 174.5937
8620.000000 81.937 176.4471
8750.000000 81.864 177.7964
8850.000000 81.836 178.5422
9000.000000 81.856 179.1926
9120.000000 81.917 179.0939
9250.000000 81.987 178.2256
9380.000000 82.041 176.7155
9500.000000 82.098 174.5280
9620.000000 82.073 171.0724
9750.000000 81.815 166.5239
9880.000000 81.315 162.0672
10000.000000 80.672 158.5245
10150.000000 79.689 155.2975
10300.000000 78.592 153.6490
10440.000000 77.547 153.5057
10600.000000 76.401 154.7068
10750.000000 75.419 156.9130
10900.000000 74.553 159.9947
11060.000000 73.774 164.0167
11200.000000 73.234 168.0135
11380.000000 72.765 173.4920
11500.000000 72.592 177.1535
11720.000000 72.537 -176.4350
11800.000000 72.598 -174.2532
12060.000000 73.086 -168.0810
12200.000000 73.503 -165.5297
12410.000000 74.297 -162.8813
12500.000000 74.695 -162.2483
12650.000000 75.417 -162.0199
12800.000000 76.182 -163.0183
13150.000000 77.789 -170.7542
13200.000000 77.962 -172.4180
13400.000000 78.442 -179.8721
13600.000000 78.575 172.3939
13800.000000 78.437 165.4790
14000.000000 78.167 159.9440
14300.000000 77.852 153.9088
14500.000000 77.868 150.3506
14750.000000 78.125 145.2231
15000.000000 78.639 138.6698
15250.000000 79.331 129.9796
15500.000000 80.271 118.9144
15750.000000 81.360 103.7592
16000.000000 82.361 84.3447
16250.000000 83.315 61.3214
16500.000000 84.197 33.2002
16750.000000 84.584 -0.4188
17000.000000 84.385 -36.1787
17250.000000 84.033 -72.7179
17500.000000 83.830 -112.9154
17750.000000 83.439 -160.1050
18000.000000 82.177 147.4813
18250.000000 79.779 96.4058
18500.000000 76.623 50.0232
18750.000000 73.360 6.1017
19000.000000 70.446 -39.2800
19250.000000 67.965 -89.4528
19500.000000 65.771 -146.2037
19750.000000 63.815 155.4272
