* Measurement data measured by REW V5.20.13
* Source: /Users/a1677932/Documents/Personal/iegems-graphtool/data_iegems/Vamp898 Target.txt
* Format: Comma/Tab/Space delimited data
* Dated: 01/11/2024 12:58:27 PM
* REW Settings:
*  C-weighting compensation: Off
*  Target level: 75.0 dB
* Note: ; Measurement imported from /Users/a1677932/Documents/Personal/iegems-graphtool/data_iegems/Vamp898 Target.txt Format: Comma/Tab/Space delimited data 45 values loaded, 20 Hz to 20,000 Hz 
* Measurement: Vamp898 Target
* Smoothing: 1/24 octave
* Frequency Step: 1/48 octave
* Start Frequency: 20.000 Hz
*
* Freq(Hz) SPL(dB)
20.000000 3.000
20.299999 3.000
20.600000 3.000
20.900000 3.000
21.200001 3.000
21.400000 3.000
21.799999 3.000
22.000000 3.000
22.400000 3.000
22.700001 3.000
23.000000 3.000
23.299999 3.000
23.600000 3.000
24.000000 3.000
24.299999 3.000
24.700001 3.000
25.000000 3.000
25.400000 3.000
25.799999 3.000
26.200001 3.000
26.500000 3.000
26.900000 3.000
27.200001 3.000
27.600000 3.000
28.000000 3.000
28.500000 3.000
29.000000 3.000
29.500000 3.000
30.000000 3.000
30.400000 3.000
30.700001 3.000
31.100000 3.000
31.500000 3.000
32.000000 3.000
32.500000 3.000
33.000000 3.000
33.500000 3.000
34.000000 3.000
34.500000 3.000
35.000000 3.000
35.500000 3.000
36.000000 3.000
36.500000 3.000
37.000000 3.000
37.500000 3.000
38.200001 3.000
38.700001 3.000
39.500000 3.000
40.000000 3.000
40.599998 3.000
41.200001 3.000
41.799999 3.000
42.500000 3.000
43.099998 3.000
43.700001 3.000
44.400002 3.000
45.000000 3.000
45.500000 3.000
46.200001 3.000
46.799999 3.000
47.500000 3.000
48.200001 3.000
48.700001 3.000
49.400002 3.000
50.000000 3.000
50.799999 3.000
51.500000 3.000
52.200001 3.000
53.000000 3.000
53.799999 3.000
54.500000 3.000
55.200001 3.000
56.000000 3.000
57.000000 3.000
58.000000 3.000
59.000000 3.000
60.000000 3.001
60.799999 3.002
61.500000 3.003
62.200001 3.005
63.000000 3.006
64.000000 3.008
65.000000 3.010
66.000000 3.011
67.000000 3.013
68.000000 3.014
69.000000 3.015
70.000000 3.015
71.000000 3.016
72.000000 3.016
73.000000 3.015
74.000000 3.015
75.000000 3.013
76.199997 3.011
77.500000 3.008
78.800003 3.004
80.000000 2.997
81.199997 2.985
82.500000 2.970
83.800003 2.954
85.000000 2.938
86.199997 2.922
87.500000 2.904
88.500000 2.890
90.000000 2.870
91.199997 2.854
92.500000 2.836
93.800003 2.819
95.000000 2.804
96.199997 2.790
97.500000 2.776
98.800003 2.763
100.000000 2.754
101.500000 2.746
103.000000 2.741
104.400002 2.736
106.000000 2.731
107.500000 2.727
109.000000 2.723
110.599998 2.718
112.000000 2.714
113.800003 2.709
115.000000 2.706
117.199997 2.700
118.000000 2.697
120.599998 2.690
122.000000 2.687
124.099998 2.681
125.000000 2.679
126.500000 2.675
128.000000 2.672
131.500000 2.663
132.000000 2.662
134.000000 2.657
136.000000 2.652
138.000000 2.647
140.000000 2.643
143.000000 2.636
145.000000 2.631
147.500000 2.625
150.000000 2.620
152.500000 2.614
155.000000 2.609
157.500000 2.603
160.000000 2.597
162.500000 2.592
165.000000 2.586
167.500000 2.580
170.000000 2.575
172.500000 2.569
175.000000 2.563
177.500000 2.557
180.000000 2.551
182.500000 2.545
185.000000 2.539
187.500000 2.533
190.000000 2.527
192.500000 2.520
195.000000 2.513
197.500000 2.506
200.000000 2.498
203.000000 2.487
206.000000 2.474
209.000000 2.461
212.000000 2.448
214.000000 2.439
218.000000 2.421
220.000000 2.412
224.000000 2.393
227.000000 2.379
230.000000 2.365
233.000000 2.350
236.000000 2.336
240.000000 2.316
243.000000 2.301
247.000000 2.281
250.000000 2.265
254.000000 2.245
258.000000 2.224
262.000000 2.203
265.000000 2.188
269.000000 2.167
272.000000 2.151
276.000000 2.129
280.000000 2.108
285.000000 2.081
290.000000 2.054
295.000000 2.027
300.000000 2.001
304.000000 1.980
307.000000 1.965
311.000000 1.945
315.000000 1.925
320.000000 1.900
325.000000 1.875
330.000000 1.850
335.000000 1.825
340.000000 1.800
345.000000 1.775
350.000000 1.750
355.000000 1.725
360.000000 1.700
365.000000 1.675
370.000000 1.650
375.000000 1.625
382.000000 1.590
387.000000 1.565
395.000000 1.525
400.000000 1.500
406.000000 1.470
412.000000 1.440
418.000000 1.410
425.000000 1.375
431.000000 1.345
437.000000 1.315
444.000000 1.280
450.000000 1.250
455.000000 1.225
462.000000 1.190
468.000000 1.160
475.000000 1.125
482.000000 1.090
487.000000 1.065
494.000000 1.030
500.000000 0.999
508.000000 0.957
515.000000 0.920
522.000000 0.883
530.000000 0.841
538.000000 0.799
545.000000 0.763
552.000000 0.728
560.000000 0.687
570.000000 0.638
580.000000 0.591
590.000000 0.545
600.000000 0.501
608.000000 0.468
615.000000 0.440
622.000000 0.413
630.000000 0.383
640.000000 0.345
650.000000 0.309
660.000000 0.274
670.000000 0.239
680.000000 0.206
690.000000 0.173
700.000000 0.142
710.000000 0.111
720.000000 0.082
730.000000 0.054
740.000000 0.028
750.000000 0.006
762.000000 -0.009
775.000000 -0.013
788.000000 -0.009
800.000000 -0.003
812.000000 -0.001
825.000000 -0.000
838.000000 -0.000
850.000000 -0.000
862.000000 -0.000
875.000000 -0.000
885.000000 -0.000
900.000000 -0.003
912.000000 -0.008
925.000000 -0.015
938.000000 -0.020
950.000000 -0.023
962.000000 -0.023
975.000000 -0.019
988.000000 -0.006
1000.000000 0.019
1015.000000 0.078
1030.000000 0.165
1044.000000 0.256
1060.000000 0.359
1075.000000 0.451
1090.000000 0.541
1106.000000 0.637
1120.000000 0.721
1138.000000 0.830
1150.000000 0.902
1172.000000 1.034
1180.000000 1.082
1206.000000 1.238
1220.000000 1.322
1241.000000 1.448
1250.000000 1.502
1265.000000 1.592
1280.000000 1.682
1315.000000 1.892
1320.000000 1.922
1340.000000 2.042
1360.000000 2.162
1380.000000 2.282
1400.000000 2.402
1430.000000 2.583
1450.000000 2.706
1475.000000 2.857
1500.000000 2.986
1525.000000 3.082
1550.000000 3.161
1575.000000 3.233
1600.000000 3.303
1625.000000 3.376
1650.000000 3.451
1675.000000 3.526
1700.000000 3.601
1725.000000 3.676
1750.000000 3.751
1775.000000 3.827
1800.000000 3.905
1825.000000 3.985
1850.000000 4.063
1875.000000 4.132
1900.000000 4.187
1925.000000 4.222
1950.000000 4.241
1975.000000 4.249
2000.000000 4.251
2030.000000 4.251
2060.000000 4.252
2090.000000 4.252
2120.000000 4.253
2140.000000 4.253
2180.000000 4.254
2200.000000 4.254
2240.000000 4.255
2270.000000 4.255
2300.000000 4.255
2330.000000 4.256
2360.000000 4.256
2400.000000 4.256
2430.000000 4.256
2470.000000 4.256
2500.000000 4.256
2540.000000 4.255
2580.000000 4.255
2620.000000 4.255
2650.000000 4.255
2690.000000 4.254
2720.000000 4.254
2760.000000 4.253
2800.000000 4.253
2850.000000 4.252
2900.000000 4.251
2950.000000 4.251
3000.000000 4.250
3040.000000 4.250
3070.000000 4.250
3110.000000 4.250
3150.000000 4.250
3200.000000 4.250
3250.000000 4.250
3300.000000 4.250
3350.000000 4.250
3400.000000 4.250
3450.000000 4.250
3500.000000 4.250
3550.000000 4.250
3600.000000 4.250
3650.000000 4.250
3700.000000 4.250
3750.000000 4.250
3820.000000 4.250
3870.000000 4.250
3950.000000 4.250
4000.000000 4.251
4060.000000 4.253
4120.000000 4.255
4180.000000 4.257
4250.000000 4.260
4310.000000 4.262
4370.000000 4.263
4440.000000 4.265
4500.000000 4.265
4550.000000 4.266
4620.000000 4.266
4680.000000 4.265
4750.000000 4.263
4820.000000 4.261
4870.000000 4.258
4940.000000 4.255
5000.000000 4.252
5080.000000 4.251
5150.000000 4.250
5220.000000 4.247
5300.000000 4.242
5380.000000 4.233
5450.000000 4.222
5520.000000 4.207
5600.000000 4.186
5700.000000 4.153
5800.000000 4.111
5900.000000 4.057
6000.000000 3.975
6080.000000 3.874
6150.000000 3.760
6220.000000 3.628
6300.000000 3.462
6400.000000 3.239
6500.000000 3.015
6600.000000 2.804
6700.000000 2.603
6800.000000 2.403
6900.000000 2.203
7000.000000 2.003
7100.000000 1.803
7200.000000 1.603
7300.000000 1.403
7400.000000 1.204
7500.000000 1.007
7620.000000 0.775
7750.000000 0.521
7880.000000 0.256
8000.000000 -0.006
8120.000000 -0.286
8250.000000 -0.602
8380.000000 -0.923
8500.000000 -1.223
8620.000000 -1.525
8750.000000 -1.855
8850.000000 -2.111
9000.000000 -2.504
9120.000000 -2.833
9250.000000 -3.194
9380.000000 -3.550
9500.000000 -3.866
9620.000000 -4.167
9750.000000 -4.471
9880.000000 -4.743
10000.000000 -4.952
10150.000000 -5.153
10300.000000 -5.317
10440.000000 -5.460
10600.000000 -5.618
10750.000000 -5.761
10900.000000 -5.902
11060.000000 -6.051
11200.000000 -6.180
11380.000000 -6.347
11500.000000 -6.460
11720.000000 -6.670
11800.000000 -6.748
12060.000000 -7.012
12200.000000 -7.163
12410.000000 -7.414
12500.000000 -7.541
12650.000000 -7.786
12800.000000 -8.063
13150.000000 -8.753
13200.000000 -8.854
13400.000000 -9.262
13600.000000 -9.675
13800.000000 -10.090
14000.000000 -10.505
14300.000000 -11.120
14500.000000 -11.522
14750.000000 -12.007
15000.000000 -12.445
15250.000000 -12.803
15500.000000 -13.108
15750.000000 -13.389
16000.000000 -13.651
16250.000000 -13.898
16500.000000 -14.133
16750.000000 -14.358
17000.000000 -14.575
17250.000000 -14.790
17500.000000 -15.011
17750.000000 -15.248
18000.000000 -15.495
18250.000000 -15.745
18500.000000 -15.995
18750.000000 -16.245
19000.000000 -16.494
19250.000000 -16.744
19500.000000 -16.990
19750.000000 -17.212
20000.000000 -17.342

