* Measurement data measured by REW V5.20.9
* Source: Headset (USB-C to 3.5mm Headphone Jack Adapter), MICROPHONE (Master Volume), L, volume: 0.260. Timing signal peak level -19.8 dBFS, measurement signal peak level -20.0 dBFS
* Format: 256k Log Swept Sine, 1 sweep at -12.0 dBFS using an acoustic timing reference
* Dated: 18/09/2024 11:53:16 AM
* REW Settings:
*  C-weighting compensation: Off
*  Target level: 75.0 dB
* Note: ; Delay -1.2053 ms (-413 mm, -(1 ft 4.28 in)) using IR start time relative to Acoustic reference on HEADPHONE R with no timing offset
* Measurement: Xeno v0.06 R
* Smoothing: 1/24 octave
* Frequency Step: 1/48 octave
* Start Frequency: 1.000 Hz
*
* Freq(Hz) SPL(dB) Phase(degrees)
1.000000 41.157 90.6281
1.015000 41.189 89.1810
1.030000 41.221 87.7719
1.044000 41.251 86.4957
1.060000 41.284 85.0883
1.075000 41.316 83.8238
1.090000 41.347 82.6175
1.106000 41.379 81.3980
1.120000 41.408 80.3761
1.138000 41.445 79.1170
1.150000 41.470 78.3097
1.172000 41.516 76.8914
1.180000 41.533 76.3941
1.206000 41.587 74.8396
1.220000 41.617 74.0381
1.241000 41.661 72.8766
1.250000 41.680 72.3922
1.265000 41.712 71.6008
1.280000 41.744 70.8268
1.315000 41.819 69.0740
1.320000 41.830 68.8282
1.340000 41.873 67.8529
1.360000 41.916 66.8851
1.380000 41.959 65.9186
1.400000 42.001 64.9472
1.430000 42.066 63.4672
1.450000 42.108 62.4561
1.475000 42.162 61.1559
1.500000 42.215 59.8294
1.525000 42.268 58.4873
1.550000 42.320 57.1372
1.575000 42.373 55.7865
1.600000 42.425 54.4428
1.625000 42.478 53.1134
1.650000 42.531 51.8060
1.675000 42.584 50.5280
1.700000 42.637 49.2869
1.725000 42.691 48.0901
1.750000 42.745 46.9452
1.775000 42.800 45.8596
1.800000 42.856 44.8409
1.825000 42.912 43.8964
1.850000 42.969 43.0289
1.875000 43.024 42.2279
1.900000 43.079 41.4884
1.925000 43.134 40.8058
1.950000 43.189 40.1754
1.975000 43.244 39.5927
2.000000 43.300 39.0530
2.030000 43.368 38.4556
2.060000 43.439 37.9055
2.090000 43.513 37.3946
2.120000 43.590 36.9151
2.140000 43.644 36.6088
2.180000 43.758 36.0179
2.200000 43.819 35.7287
2.240000 43.944 35.2067
2.270000 44.041 34.8740
2.300000 44.141 34.5855
2.330000 44.243 34.3358
2.360000 44.349 34.1193
2.400000 44.497 33.8730
2.430000 44.612 33.7129
2.470000 44.771 33.5218
2.500000 44.896 33.3882
2.540000 45.071 33.2125
2.580000 45.254 33.0343
2.620000 45.449 32.8968
2.650000 45.601 32.8219
2.690000 45.811 32.7503
2.720000 45.974 32.7115
2.760000 46.197 32.6702
2.800000 46.425 32.6303
2.850000 46.715 32.5644
2.900000 47.010 32.4596
2.950000 47.306 32.2998
3.000000 47.612 32.1264
3.040000 47.863 31.9812
3.070000 48.055 31.8652
3.110000 48.312 31.6972
3.150000 48.572 31.5096
3.200000 48.895 31.2398
3.250000 49.216 30.9221
3.300000 49.530 30.5466
3.350000 49.841 30.1032
3.400000 50.153 29.5981
3.450000 50.464 29.0451
3.500000 50.772 28.4579
3.550000 51.076 27.8500
3.600000 51.376 27.2352
3.650000 51.669 26.6270
3.700000 51.955 26.0274
3.750000 52.236 25.4155
3.820000 52.622 24.5406
3.870000 52.892 23.9056
3.950000 53.313 22.8780
4.000000 53.570 22.2319
4.060000 53.872 21.4521
4.120000 54.166 20.6520
4.180000 54.453 19.8396
4.250000 54.779 18.8918
4.310000 55.053 18.0929
4.370000 55.322 17.3186
4.440000 55.630 16.4562
4.500000 55.887 15.7418
4.550000 56.098 15.1606
4.620000 56.387 14.3646
4.680000 56.631 13.6950
4.750000 56.912 12.9238
4.820000 57.189 12.1625
4.870000 57.384 11.6278
4.940000 57.652 10.8914
5.000000 57.879 10.2711
5.080000 58.177 9.4586
5.150000 58.435 8.7611
5.220000 58.689 8.0795
5.300000 58.976 7.3180
5.380000 59.257 6.5698
5.450000 59.500 5.9221
5.520000 59.739 5.2774
5.600000 60.007 4.5471
5.700000 60.337 3.6464
5.800000 60.658 2.7605
5.900000 60.972 1.8898
6.000000 61.278 1.0312
6.080000 61.518 0.3558
6.150000 61.723 -0.2242
6.220000 61.926 -0.7916
6.300000 62.154 -1.4242
6.400000 62.431 -2.1943
6.500000 62.703 -2.9420
6.600000 62.970 -3.6681
6.700000 63.232 -4.3706
6.800000 63.489 -5.0507
6.900000 63.741 -5.7125
7.000000 63.991 -6.3588
7.100000 64.237 -6.9841
7.200000 64.479 -7.5942
7.300000 64.718 -8.1976
7.400000 64.954 -8.7985
7.500000 65.186 -9.3922
7.620000 65.460 -10.0980
7.750000 65.749 -10.8588
7.880000 66.032 -11.6160
8.000000 66.285 -12.3073
8.120000 66.532 -12.9889
8.250000 66.792 -13.7193
8.380000 67.044 -14.4339
8.500000 67.271 -15.0737
8.620000 67.492 -15.6967
8.750000 67.725 -16.3529
8.850000 67.901 -16.8433
9.000000 68.160 -17.5544
9.120000 68.363 -18.1096
9.250000 68.579 -18.7021
9.380000 68.791 -19.2824
9.500000 68.983 -19.8123
9.620000 69.171 -20.3406
9.750000 69.370 -20.9086
9.880000 69.564 -21.4661
10.000000 69.738 -21.9725
10.150000 69.949 -22.5920
10.300000 70.154 -23.1758
10.440000 70.340 -23.6884
10.600000 70.549 -24.2349
10.750000 70.746 -24.6980
10.900000 70.944 -25.1243
11.060000 71.161 -25.5694
11.200000 71.357 -25.9398
11.380000 71.616 -26.4633
11.500000 71.794 -26.8495
11.720000 72.124 -27.6665
11.800000 72.242 -28.0175
12.060000 72.619 -29.3248
12.200000 72.804 -30.1335
12.410000 73.058 -31.4522
12.500000 73.154 -32.0154
12.650000 73.297 -32.9808
12.800000 73.422 -33.8941
13.150000 73.650 -35.6311
13.200000 73.681 -35.8178
13.400000 73.794 -36.3883
13.600000 73.925 -36.7361
13.800000 74.085 -36.8511
14.000000 74.285 -36.9325
14.300000 74.662 -37.1251
14.500000 74.952 -37.5145
14.750000 75.318 -38.3679
15.000000 75.667 -39.6405
15.250000 75.963 -41.2073
15.500000 76.198 -42.8411
15.750000 76.375 -44.3934
16.000000 76.508 -45.6509
16.250000 76.629 -46.5570
16.500000 76.759 -47.1351
16.750000 76.923 -47.4670
17.000000 77.127 -47.7597
17.250000 77.363 -48.1134
17.500000 77.617 -48.6496
17.750000 77.866 -49.3779
18.000000 78.099 -50.2475
18.250000 78.307 -51.1973
18.500000 78.492 -52.1177
18.750000 78.660 -52.9757
19.000000 78.819 -53.7412
19.250000 78.976 -54.4315
19.500000 79.135 -55.0790
19.750000 79.295 -55.7079
20.000000 79.455 -56.3450
20.299999 79.642 -57.1129
20.600000 79.823 -57.8732
20.900000 80.002 -58.6131
21.200001 80.181 -59.3383
21.400000 80.303 -59.8335
21.799999 80.546 -60.8911
22.000000 80.664 -61.4656
22.400000 80.884 -62.6979
22.700001 81.030 -63.6458
23.000000 81.161 -64.5538
23.299999 81.283 -65.3905
23.600000 81.403 -66.1604
24.000000 81.567 -67.1299
24.299999 81.691 -67.8637
24.700001 81.847 -68.8782
25.000000 81.951 -69.6366
25.400000 82.071 -70.5585
25.799999 82.179 -71.2855
26.200001 82.298 -71.8105
26.500000 82.404 -72.1370
26.900000 82.571 -72.6072
27.200001 82.706 -73.0658
27.600000 82.882 -73.8644
28.000000 83.031 -74.8269
28.500000 83.165 -76.0588
29.000000 83.257 -77.0719
29.500000 83.344 -77.7749
30.000000 83.463 -78.3155
30.400000 83.586 -78.8133
30.700001 83.685 -79.2951
31.100000 83.811 -80.0923
31.500000 83.916 -80.9957
32.000000 84.017 -82.0993
32.500000 84.106 -83.0498
33.000000 84.209 -83.9024
33.500000 84.324 -84.7966
34.000000 84.429 -85.7598
34.500000 84.512 -86.6454
35.000000 84.591 -87.3069
35.500000 84.695 -87.7710
36.000000 84.835 -88.2342
36.500000 84.990 -88.8695
37.000000 85.128 -89.6814
37.500000 85.233 -90.5225
38.200001 85.339 -91.4557
38.700001 85.416 -91.9083
39.500000 85.575 -92.5825
40.000000 85.679 -93.1525
40.599998 85.781 -93.9709
41.200001 85.850 -94.7422
41.799999 85.912 -95.3590
42.500000 86.006 -96.0209
43.099998 86.093 -96.7043
43.700001 86.166 -97.4625
44.400002 86.233 -98.2689
45.000000 86.294 -98.8410
45.500000 86.356 -99.2905
46.200001 86.451 -99.9673
46.799999 86.528 -100.5953
47.500000 86.605 -101.3051
48.200001 86.674 -101.9306
48.700001 86.723 -102.3284
49.400002 86.794 -102.8448
50.000000 86.855 -103.2717
50.799999 86.933 -103.8375
51.500000 86.997 -104.3189
52.200001 87.059 -104.7788
53.000000 87.131 -105.3288
53.799999 87.196 -105.9462
54.500000 87.238 -106.4912
55.200001 87.272 -106.9791
56.000000 87.312 -107.4543
57.000000 87.379 -108.0235
58.000000 87.450 -108.6824
59.000000 87.511 -109.3512
60.000000 87.566 -109.9710
60.799999 87.605 -110.4306
61.500000 87.638 -110.7796
62.200001 87.675 -111.0913
63.000000 87.722 -111.4549
64.000000 87.778 -111.9702
65.000000 87.820 -112.5158
66.000000 87.849 -113.0062
67.000000 87.879 -113.4088
68.000000 87.917 -113.7796
69.000000 87.959 -114.1688
70.000000 88.000 -114.5460
71.000000 88.043 -114.9479
72.000000 88.073 -115.3912
73.000000 88.088 -115.7647
74.000000 88.105 -116.0527
75.000000 88.129 -116.3465
76.199997 88.154 -116.7094
77.500000 88.183 -117.0830
78.800003 88.210 -117.4391
80.000000 88.238 -117.7243
81.199997 88.267 -118.0166
82.500000 88.292 -118.3266
83.800003 88.314 -118.6259
85.000000 88.329 -118.9050
86.199997 88.338 -119.1445
87.500000 88.351 -119.3651
88.500000 88.363 -119.5403
90.000000 88.376 -119.7983
91.199997 88.386 -119.9807
92.500000 88.397 -120.1800
93.800003 88.405 -120.3649
95.000000 88.411 -120.5047
96.199997 88.419 -120.6336
97.500000 88.427 -120.7738
98.800003 88.431 -120.9230
100.000000 88.430 -121.0408
101.500000 88.429 -121.1396
103.000000 88.433 -121.2199
104.400002 88.436 -121.3037
106.000000 88.436 -121.3879
107.500000 88.432 -121.4375
109.000000 88.428 -121.4596
110.599998 88.426 -121.5010
112.000000 88.420 -121.5518
113.800003 88.407 -121.5821
115.000000 88.398 -121.5623
117.199997 88.390 -121.4981
118.000000 88.388 -121.4804
120.599998 88.377 -121.4127
122.000000 88.368 -121.3608
124.099998 88.353 -121.2766
125.000000 88.345 -121.2325
126.500000 88.332 -121.1471
128.000000 88.324 -121.0587
131.500000 88.308 -120.9029
132.000000 88.305 -120.8750
134.000000 88.286 -120.7360
136.000000 88.258 -120.5425
138.000000 88.230 -120.3063
140.000000 88.204 -120.0818
143.000000 88.168 -119.7191
145.000000 88.148 -119.4751
147.500000 88.120 -119.1632
150.000000 88.090 -118.8315
152.500000 88.057 -118.4777
155.000000 88.024 -118.1022
157.500000 87.991 -117.7160
160.000000 87.958 -117.3147
162.500000 87.927 -116.9083
165.000000 87.892 -116.5048
167.500000 87.854 -116.0745
170.000000 87.815 -115.6072
172.500000 87.778 -115.1181
175.000000 87.742 -114.6224
177.500000 87.706 -114.1212
180.000000 87.669 -113.6006
182.500000 87.632 -113.0664
185.000000 87.593 -112.5276
187.500000 87.553 -111.9815
190.000000 87.513 -111.4223
192.500000 87.475 -110.8545
195.000000 87.438 -110.2940
197.500000 87.400 -109.7296
200.000000 87.360 -109.1430
203.000000 87.313 -108.4100
206.000000 87.264 -107.6495
209.000000 87.214 -106.8682
212.000000 87.165 -106.0903
214.000000 87.133 -105.5767
218.000000 87.070 -104.5322
220.000000 87.038 -103.9945
224.000000 86.973 -102.9141
227.000000 86.925 -102.0937
230.000000 86.878 -101.2627
233.000000 86.829 -100.4166
236.000000 86.777 -99.5435
240.000000 86.711 -98.3751
243.000000 86.663 -97.4979
247.000000 86.597 -96.3011
250.000000 86.549 -95.4007
254.000000 86.483 -94.1900
258.000000 86.419 -92.9547
262.000000 86.357 -91.6997
265.000000 86.310 -90.7514
269.000000 86.244 -89.4834
272.000000 86.196 -88.5208
276.000000 86.134 -87.2284
280.000000 86.071 -85.9359
285.000000 85.992 -84.3103
290.000000 85.912 -82.6490
295.000000 85.837 -80.9761
300.000000 85.762 -79.2706
304.000000 85.700 -77.8940
307.000000 85.655 -76.8589
311.000000 85.594 -75.4770
315.000000 85.535 -74.0855
320.000000 85.462 -72.3300
325.000000 85.389 -70.5694
330.000000 85.315 -68.7949
335.000000 85.243 -67.0027
340.000000 85.172 -65.1924
345.000000 85.101 -63.3582
350.000000 85.031 -61.5237
355.000000 84.963 -59.6855
360.000000 84.894 -57.8282
365.000000 84.827 -55.9586
370.000000 84.760 -54.0777
375.000000 84.694 -52.1791
382.000000 84.604 -49.5270
387.000000 84.542 -47.6267
395.000000 84.442 -44.5349
400.000000 84.377 -42.5942
406.000000 84.301 -40.2655
412.000000 84.226 -37.9420
418.000000 84.154 -35.6033
425.000000 84.071 -32.8226
431.000000 84.001 -30.4466
437.000000 83.932 -28.1029
444.000000 83.854 -25.3444
450.000000 83.792 -22.9402
455.000000 83.740 -20.9197
462.000000 83.665 -18.0895
468.000000 83.604 -15.6674
475.000000 83.534 -12.8331
482.000000 83.465 -9.9829
487.000000 83.415 -7.9391
494.000000 83.348 -5.0798
500.000000 83.291 -2.6306
508.000000 83.217 0.6537
515.000000 83.154 3.5526
522.000000 83.096 6.4557
530.000000 83.030 9.7723
538.000000 82.955 13.0971
545.000000 82.892 16.0083
552.000000 82.833 18.9270
560.000000 82.767 22.2601
570.000000 82.692 26.4425
580.000000 82.610 30.6723
590.000000 82.540 34.9952
600.000000 82.482 39.2701
608.000000 82.431 42.6433
615.000000 82.383 45.6166
622.000000 82.337 48.6168
630.000000 82.287 52.0594
640.000000 82.228 56.3591
650.000000 82.172 60.6616
660.000000 82.120 64.9764
670.000000 82.071 69.3064
680.000000 82.023 73.6400
690.000000 81.977 77.9784
700.000000 81.935 82.3483
710.000000 81.898 86.7208
720.000000 81.861 91.0898
730.000000 81.826 95.4654
740.000000 81.797 99.8471
750.000000 81.770 104.2375
762.000000 81.743 109.5090
775.000000 81.721 115.2264
788.000000 81.705 120.9418
800.000000 81.694 126.2189
812.000000 81.686 131.4967
825.000000 81.681 137.2049
838.000000 81.684 142.9065
850.000000 81.692 148.1627
862.000000 81.704 153.4097
875.000000 81.722 159.0834
885.000000 81.740 163.4357
900.000000 81.774 169.9282
912.000000 81.805 175.0793
925.000000 81.838 -179.3947
938.000000 81.861 -173.8867
950.000000 81.879 -168.7339
962.000000 81.908 -163.5226
975.000000 81.953 -157.9146
988.000000 82.003 -152.3810
1000.000000 82.047 -147.3172
1015.000000 82.098 -141.0225
1030.000000 82.144 -134.7516
1044.000000 82.181 -128.8937
1060.000000 82.208 -122.1365
1075.000000 82.226 -115.6293
1090.000000 82.259 -108.8206
1106.000000 82.368 -101.2947
1120.000000 82.552 -94.9000
1138.000000 82.830 -87.5095
1150.000000 82.981 -83.0064
1172.000000 83.160 -74.9320
1180.000000 83.206 -71.9553
1206.000000 83.328 -62.0835
1220.000000 83.388 -56.6885
1241.000000 83.477 -48.5348
1250.000000 83.515 -45.0280
1265.000000 83.576 -39.1714
1280.000000 83.639 -33.2992
1315.000000 83.790 -19.5804
1320.000000 83.812 -17.6198
1340.000000 83.902 -9.7776
1360.000000 83.991 -1.9441
1380.000000 84.081 5.8907
1400.000000 84.175 13.7252
1430.000000 84.319 25.4507
1450.000000 84.418 33.2609
1475.000000 84.543 43.0201
1500.000000 84.671 52.7496
1525.000000 84.801 62.4646
1550.000000 84.935 72.1722
1575.000000 85.074 81.8481
1600.000000 85.216 91.4934
1625.000000 85.361 101.1230
1650.000000 85.511 110.7175
1675.000000 85.664 120.2738
1700.000000 85.820 129.8030
1725.000000 85.978 139.2958
1750.000000 86.138 148.7578
1775.000000 86.301 158.1935
1800.000000 86.469 167.5880
1825.000000 86.639 176.9295
1850.000000 86.811 -173.7671
1875.000000 86.986 -164.5024
1900.000000 87.163 -155.2854
1925.000000 87.341 -146.1227
1950.000000 87.521 -137.0186
1975.000000 87.699 -127.9667
2000.000000 87.877 -118.9579
2030.000000 88.092 -108.1934
2060.000000 88.310 -97.4960
2090.000000 88.528 -86.8735
2120.000000 88.746 -76.3170
2140.000000 88.892 -69.3197
2180.000000 89.185 -55.4243
2200.000000 89.330 -48.5226
2240.000000 89.623 -34.7896
2270.000000 89.852 -24.5580
2300.000000 90.097 -14.4415
2330.000000 90.358 -4.5031
2360.000000 90.630 5.2004
2400.000000 90.998 17.6354
2430.000000 91.261 26.4767
2470.000000 91.550 37.4947
2500.000000 91.673 45.2838
2540.000000 91.670 55.4834
2580.000000 91.483 66.1077
2620.000000 91.182 77.6243
2650.000000 90.931 86.8654
2690.000000 90.601 99.8170
2720.000000 90.370 109.8876
2760.000000 90.096 123.6449
2800.000000 89.859 137.6450
2850.000000 89.609 155.3429
2900.000000 89.398 173.1761
2950.000000 89.219 -168.9105
3000.000000 89.066 -150.9478
3040.000000 88.960 -136.5530
3070.000000 88.889 -125.7485
3110.000000 88.806 -111.3353
3150.000000 88.736 -96.9167
3200.000000 88.668 -78.8960
3250.000000 88.620 -60.8970
3300.000000 88.594 -42.9410
3350.000000 88.591 -25.0594
3400.000000 88.611 -7.2865
3450.000000 88.653 10.3347
3500.000000 88.713 27.7642
3550.000000 88.786 44.9646
3600.000000 88.868 61.9075
3650.000000 88.953 78.5762
3700.000000 89.037 94.9440
3750.000000 89.114 110.9706
3820.000000 89.192 132.7473
3870.000000 89.205 147.7781
3950.000000 89.094 170.9440
4000.000000 88.908 -174.9991
4060.000000 88.534 -158.2844
4120.000000 87.983 -141.3442
4180.000000 87.264 -123.7097
4250.000000 86.272 -101.7039
4310.000000 85.376 -81.3584
4370.000000 84.540 -59.7341
4440.000000 83.761 -33.5071
4500.000000 83.315 -10.9856
4550.000000 83.080 7.2529
4620.000000 82.865 31.4093
4680.000000 82.687 50.6398
4750.000000 82.375 71.3979
4820.000000 81.861 90.5289
4870.000000 81.327 103.2991
4940.000000 80.283 119.9885
5000.000000 79.049 133.0474
5080.000000 76.762 147.4421
5150.000000 73.948 152.8782
5220.000000 70.363 141.6699
5300.000000 68.534 106.4146
5380.000000 71.964 80.5448
5450.000000 74.911 78.4254
5520.000000 77.011 86.0193
5600.000000 78.615 98.3423
5700.000000 79.755 114.8114
5800.000000 80.167 130.7797
5900.000000 79.986 145.2271
6000.000000 79.313 156.9771
6080.000000 78.525 163.4436
6150.000000 77.789 166.3945
6220.000000 77.206 166.8354
6300.000000 77.013 165.3599
6400.000000 77.634 163.8295
6500.000000 78.793 165.8762
6600.000000 79.946 172.0432
6700.000000 80.831 -179.0465
6800.000000 81.380 -169.0122
6900.000000 81.613 -159.2197
7000.000000 81.600 -150.7926
7100.000000 81.471 -144.6213
7200.000000 81.433 -141.0763
7300.000000 81.717 -139.5939
7400.000000 82.430 -138.7704
7500.000000 83.460 -137.2008
7620.000000 84.811 -133.5977
7750.000000 86.114 -128.4253
7880.000000 87.101 -123.8961
8000.000000 87.726 -122.0453
8120.000000 88.143 -123.5109
8250.000000 88.470 -128.7750
8380.000000 88.730 -136.1434
8500.000000 88.858 -142.5737
8620.000000 88.772 -147.1423
8750.000000 88.358 -149.6974
8850.000000 87.812 -150.4841
9000.000000 86.701 -151.1547
9120.000000 85.690 -152.1716
9250.000000 84.631 -154.0088
9380.000000 83.680 -156.0778
9500.000000 82.821 -157.3097
9620.000000 81.854 -157.4056
9750.000000 80.536 -156.3586
9880.000000 78.845 -154.5048
10000.000000 76.968 -152.1753
10150.000000 74.385 -147.6136
10300.000000 72.037 -139.6725
10440.000000 70.591 -129.6287
10600.000000 69.525 -118.3931
10750.000000 67.962 -107.5120
10900.000000 65.251 -90.1239
11060.000000 61.768 -62.7432
11200.000000 59.934 -41.0120
11380.000000 59.859 -22.8263
11500.000000 60.608 -11.9294
11720.000000 62.570 13.1152
11800.000000 63.228 23.2617
12060.000000 64.361 53.2155
12200.000000 64.228 65.1615
12410.000000 63.378 76.3484
12500.000000 62.924 80.2656
12650.000000 62.430 90.5405
12800.000000 62.881 109.1140
13150.000000 68.801 173.0933
13200.000000 70.089 -177.9429
13400.000000 75.885 -148.9309
13600.000000 82.055 -135.4976
13800.000000 87.704 -140.0083
14000.000000 92.046 -161.3823
14300.000000 94.915 144.8894
14500.000000 94.038 108.7720
14750.000000 90.589 82.0181
15000.000000 86.517 74.7021
15250.000000 83.233 76.7100
15500.000000 80.805 81.3240
15750.000000 79.055 85.9985
16000.000000 77.867 91.4209
16250.000000 77.241 97.1504
16500.000000 76.860 97.1199
16750.000000 75.622 92.6660
17000.000000 73.851 90.8579
17250.000000 71.951 93.7871
17500.000000 70.058 101.0845
17750.000000 68.417 110.4790
18000.000000 67.497 119.7322
18250.000000 67.619 126.1079
18500.000000 68.153 125.4768
18750.000000 67.739 119.1914
19000.000000 66.439 115.8076
19250.000000 65.306 112.4756
19500.000000 63.906 109.8428
19750.000000 62.607 106.1841
