* Measurement data measured by REW V5.20.9
* Source: Headset (USB-C to 3.5mm Headphone Jack Adapter), MICROPHONE (Master Volume), L, volume: 0.260. Timing signal peak level -36.5 dBFS, measurement signal peak level -26.1 dBFS
* Format: 256k Log Swept Sine, 1 sweep at -12.0 dBFS using an acoustic timing reference
* Dated: 18/02/2024 12:34:14 PM
* REW Settings:
*  C-weighting compensation: Off
*  Target level: 75.0 dB
* Note: ; Delay -0.0578 ms (-20 mm, -0.78 in) using estimated IR delay relative to Acoustic reference on SPEAKER R with no timing offset
* Measurement: Yvain R
* Smoothing: 1/24 octave
* Frequency Step: 1/48 octave
* Start Frequency: 1.000 Hz
*
* Freq(Hz) SPL(dB) Phase(degrees)
1.000000 37.423 -170.6779
1.015000 37.521 -172.7769
1.030000 37.616 -174.8358
1.044000 37.704 -176.7159
1.060000 37.803 -178.8091
1.075000 37.893 179.2885
1.090000 37.982 177.4502
1.106000 38.075 175.5642
1.120000 38.154 173.9639
1.138000 38.250 171.9665
1.150000 38.312 170.6698
1.172000 38.420 168.3586
1.180000 38.458 167.5378
1.206000 38.578 164.9335
1.220000 38.640 163.5671
1.241000 38.730 161.5572
1.250000 38.768 160.7084
1.265000 38.831 159.3079
1.280000 38.893 157.9221
1.315000 39.036 154.7268
1.320000 39.056 154.2729
1.340000 39.138 152.4586
1.360000 39.222 150.6406
1.380000 39.307 148.8110
1.400000 39.394 146.9616
1.430000 39.531 144.1332
1.450000 39.628 142.1998
1.475000 39.754 139.7157
1.500000 39.886 137.1572
1.525000 40.020 134.5388
1.550000 40.158 131.8756
1.575000 40.298 129.1825
1.600000 40.441 126.4747
1.625000 40.585 123.7672
1.650000 40.730 121.0751
1.675000 40.876 118.4135
1.700000 41.023 115.7974
1.725000 41.169 113.2418
1.750000 41.314 110.7620
1.775000 41.459 108.3728
1.800000 41.602 106.0894
1.825000 41.743 103.9268
1.850000 41.882 101.8835
1.875000 42.021 99.9249
1.900000 42.159 98.0452
1.925000 42.297 96.2404
1.950000 42.435 94.5063
1.975000 42.572 92.8386
2.000000 42.709 91.2333
2.030000 42.873 89.3835
2.060000 43.037 87.6103
2.090000 43.200 85.9065
2.120000 43.363 84.2649
2.140000 43.472 83.2016
2.180000 43.689 81.1399
2.200000 43.797 80.1374
2.240000 44.012 78.2255
2.270000 44.170 76.8813
2.300000 44.327 75.6097
2.330000 44.483 74.4065
2.360000 44.639 73.2676
2.400000 44.848 71.8423
2.430000 45.007 70.8378
2.470000 45.222 69.5769
2.500000 45.387 68.6847
2.540000 45.613 67.5588
2.580000 45.847 66.5047
2.620000 46.086 65.5779
2.650000 46.267 64.9646
2.690000 46.513 64.2385
2.720000 46.700 63.7510
2.760000 46.954 63.1601
2.800000 47.213 62.6170
2.850000 47.545 61.9727
2.900000 47.886 61.3280
2.950000 48.239 60.6571
3.000000 48.606 60.0634
3.040000 48.910 59.6433
3.070000 49.141 59.3476
3.110000 49.455 58.9639
3.150000 49.771 58.5747
3.200000 50.168 58.0511
3.250000 50.563 57.4514
3.300000 50.952 56.7385
3.350000 51.342 55.9233
3.400000 51.737 55.0382
3.450000 52.133 54.0930
3.500000 52.528 53.0977
3.550000 52.916 52.0622
3.600000 53.297 50.9964
3.650000 53.665 49.9103
3.700000 54.022 48.8031
3.750000 54.373 47.6567
3.820000 54.851 45.9932
3.870000 55.183 44.7696
3.950000 55.693 42.7636
4.000000 55.997 41.4870
4.060000 56.346 39.9301
4.120000 56.679 38.3093
4.180000 56.997 36.6443
4.250000 57.350 34.6837
4.310000 57.636 33.0201
4.370000 57.909 31.4017
4.440000 58.210 29.5852
4.500000 58.450 28.0499
4.550000 58.639 26.7891
4.620000 58.889 25.0637
4.680000 59.092 23.6317
4.750000 59.318 22.0292
4.820000 59.530 20.4958
4.870000 59.671 19.4316
4.940000 59.855 17.9952
5.000000 60.006 16.8233
5.080000 60.200 15.3616
5.150000 60.368 14.1920
5.220000 60.528 13.1281
5.300000 60.702 12.0259
5.380000 60.873 11.0259
5.450000 61.026 10.2189
5.520000 61.187 9.4666
5.600000 61.373 8.7158
5.700000 61.610 7.9025
5.800000 61.859 7.1493
5.900000 62.124 6.3873
6.000000 62.406 5.6795
6.080000 62.640 5.1275
6.150000 62.850 4.6234
6.220000 63.061 4.0736
6.300000 63.307 3.3921
6.400000 63.624 2.4934
6.500000 63.943 1.5250
6.600000 64.252 0.4675
6.700000 64.556 -0.6973
6.800000 64.854 -1.9499
6.900000 65.141 -3.2566
7.000000 65.412 -4.5920
7.100000 65.668 -5.9890
7.200000 65.911 -7.4189
7.300000 66.139 -8.8365
7.400000 66.350 -10.2261
7.500000 66.546 -11.6169
7.620000 66.763 -13.2384
7.750000 66.984 -14.8768
7.880000 67.184 -16.4139
8.000000 67.358 -17.7332
8.120000 67.531 -18.9373
8.250000 67.711 -20.1108
8.380000 67.892 -21.1810
8.500000 68.066 -22.0917
8.620000 68.245 -22.9111
8.750000 68.446 -23.7535
8.850000 68.609 -24.3990
9.000000 68.863 -25.3268
9.120000 69.073 -26.0809
9.250000 69.304 -26.9460
9.380000 69.542 -27.8419
9.500000 69.760 -28.7097
9.620000 69.975 -29.6287
9.750000 70.206 -30.6740
9.880000 70.430 -31.7549
10.000000 70.628 -32.7852
10.150000 70.866 -34.1130
10.300000 71.090 -35.4427
10.440000 71.287 -36.6919
10.600000 71.498 -38.1021
10.750000 71.683 -39.3855
10.900000 71.857 -40.6360
11.060000 72.033 -41.9088
11.200000 72.179 -42.9727
11.380000 72.360 -44.2705
11.500000 72.477 -45.0883
11.720000 72.688 -46.5045
11.800000 72.765 -46.9954
12.060000 73.013 -48.5092
12.200000 73.149 -49.2932
12.410000 73.354 -50.4346
12.500000 73.443 -50.9241
12.650000 73.592 -51.7344
12.800000 73.741 -52.5505
13.150000 74.084 -54.5098
13.200000 74.131 -54.7955
13.400000 74.318 -55.9579
13.600000 74.496 -57.1306
13.800000 74.665 -58.3104
14.000000 74.824 -59.4688
14.300000 75.046 -61.1505
14.500000 75.186 -62.2128
14.750000 75.359 -63.4799
15.000000 75.531 -64.6868
15.250000 75.706 -65.8668
15.500000 75.883 -67.0544
15.750000 76.060 -68.2682
16.000000 76.231 -69.5265
16.250000 76.391 -70.8118
16.500000 76.539 -72.1058
16.750000 76.672 -73.3763
17.000000 76.794 -74.5877
17.250000 76.908 -75.7280
17.500000 77.017 -76.7854
17.750000 77.127 -77.7739
18.000000 77.240 -78.7099
18.250000 77.356 -79.6119
18.500000 77.475 -80.5042
18.750000 77.596 -81.3951
19.000000 77.717 -82.2922
19.250000 77.837 -83.1973
19.500000 77.954 -84.1094
19.750000 78.069 -85.0276
20.000000 78.179 -85.9503
20.299999 78.305 -87.0581
20.600000 78.423 -88.1575
20.900000 78.533 -89.2352
21.200001 78.636 -90.2751
21.400000 78.702 -90.9410
21.799999 78.832 -92.2102
22.000000 78.897 -92.8196
22.400000 79.029 -94.0107
22.700001 79.130 -94.9008
23.000000 79.229 -95.8001
23.299999 79.324 -96.7057
23.600000 79.415 -97.6068
24.000000 79.528 -98.7800
24.299999 79.610 -99.6261
24.700001 79.719 -100.7114
25.000000 79.803 -101.5118
25.400000 79.918 -102.6030
25.799999 80.030 -103.7695
26.200001 80.127 -105.0220
26.500000 80.181 -105.9805
26.900000 80.227 -107.1924
27.200001 80.245 -107.9758
27.600000 80.267 -108.7937
28.000000 80.312 -109.4001
28.500000 80.420 -110.1313
29.000000 80.559 -111.1743
29.500000 80.669 -112.5621
30.000000 80.716 -113.9409
30.400000 80.731 -114.7825
30.700001 80.751 -115.2374
31.100000 80.813 -115.7522
31.500000 80.913 -116.3808
32.000000 81.047 -117.5547
32.500000 81.129 -119.0410
33.000000 81.141 -120.4037
33.500000 81.126 -121.3308
34.000000 81.140 -121.8856
34.500000 81.205 -122.3943
35.000000 81.293 -123.0807
35.500000 81.369 -123.9194
36.000000 81.425 -124.7564
36.500000 81.474 -125.5162
37.000000 81.526 -126.2372
37.500000 81.579 -126.9732
38.200001 81.643 -128.0236
38.700001 81.682 -128.7512
39.500000 81.736 -129.8277
40.000000 81.770 -130.4250
40.599998 81.822 -131.0930
41.200001 81.882 -131.8026
41.799999 81.932 -132.5603
42.500000 81.971 -133.3208
43.099998 82.012 -133.7837
43.700001 82.080 -134.2183
44.400002 82.177 -134.8851
45.000000 82.253 -135.6235
45.500000 82.301 -136.3259
46.200001 82.340 -137.3491
46.799999 82.353 -138.1504
47.500000 82.369 -139.0270
48.200001 82.375 -139.9963
48.700001 82.354 -140.6454
49.400002 82.315 -141.1686
50.000000 82.335 -141.3342
50.799999 82.449 -141.8530
51.500000 82.536 -142.7562
52.200001 82.582 -143.6409
53.000000 82.637 -144.4736
53.799999 82.695 -145.3824
54.500000 82.721 -146.1873
55.200001 82.732 -146.8684
56.000000 82.745 -147.5511
57.000000 82.757 -148.3502
58.000000 82.771 -149.0804
59.000000 82.795 -149.8263
60.000000 82.820 -150.6243
60.799999 82.835 -151.2581
61.500000 82.850 -151.7825
62.200001 82.866 -152.2870
63.000000 82.887 -152.8508
64.000000 82.915 -153.5338
65.000000 82.942 -154.2207
66.000000 82.960 -154.8730
67.000000 82.981 -155.4678
68.000000 83.002 -156.1061
69.000000 83.009 -156.7244
70.000000 83.020 -157.2689
71.000000 83.035 -157.8661
72.000000 83.041 -158.4519
73.000000 83.057 -159.0137
74.000000 83.068 -159.6833
75.000000 83.061 -160.2274
76.199997 83.087 -160.7541
77.500000 83.110 -161.5148
78.800003 83.123 -162.1245
80.000000 83.140 -162.7955
81.199997 83.129 -163.4393
82.500000 83.123 -164.0157
83.800003 83.133 -164.5993
85.000000 83.146 -165.1909
86.199997 83.153 -165.6868
87.500000 83.190 -166.1534
88.500000 83.214 -166.7033
90.000000 83.179 -167.3705
91.199997 83.184 -167.5752
92.500000 83.221 -168.2841
93.800003 83.173 -169.0862
95.000000 83.149 -169.3019
96.199997 83.201 -169.7356
97.500000 83.215 -170.5891
98.800003 83.184 -171.0871
100.000000 83.191 -171.3278
101.500000 83.218 -171.8349
103.000000 83.222 -172.4351
104.400002 83.209 -172.9784
106.000000 83.189 -173.4673
107.500000 83.192 -173.8541
109.000000 83.208 -174.3672
110.599998 83.208 -175.0018
112.000000 83.194 -175.4850
113.800003 83.186 -176.0007
115.000000 83.189 -176.3601
117.199997 83.191 -177.0777
118.000000 83.189 -177.3333
120.599998 83.179 -178.0639
122.000000 83.178 -178.4207
124.099998 83.181 -179.0191
125.000000 83.181 -179.3102
126.500000 83.174 -179.8112
128.000000 83.160 179.7282
131.500000 83.133 178.9081
132.000000 83.130 178.8066
134.000000 83.124 178.3961
136.000000 83.123 177.8842
138.000000 83.117 177.3005
140.000000 83.109 176.7453
143.000000 83.090 176.0104
145.000000 83.068 175.5660
147.500000 83.040 174.9515
150.000000 83.010 174.3427
152.500000 83.003 173.8490
155.000000 82.999 173.3243
157.500000 82.980 172.7897
160.000000 82.955 172.2581
162.500000 82.928 171.7220
165.000000 82.898 171.2013
167.500000 82.866 170.7369
170.000000 82.837 170.3462
172.500000 82.807 169.9695
175.000000 82.771 169.5952
177.500000 82.731 169.2529
180.000000 82.689 168.9604
182.500000 82.646 168.7202
185.000000 82.604 168.5493
187.500000 82.563 168.4791
190.000000 82.520 168.5379
192.500000 82.483 168.7237
195.000000 82.470 169.0548
197.500000 82.492 169.5377
200.000000 82.558 170.1028
203.000000 82.727 170.5498
206.000000 82.970 170.2982
209.000000 83.198 169.3634
212.000000 83.355 167.9755
214.000000 83.414 166.9380
218.000000 83.446 164.9701
220.000000 83.434 164.1144
224.000000 83.383 162.6411
227.000000 83.336 161.7122
230.000000 83.288 160.9102
233.000000 83.242 160.2043
236.000000 83.196 159.5567
240.000000 83.138 158.7455
243.000000 83.097 158.1848
247.000000 83.046 157.5162
250.000000 83.010 157.0426
254.000000 82.965 156.3833
258.000000 82.924 155.7481
262.000000 82.885 155.1566
265.000000 82.856 154.7263
269.000000 82.819 154.1623
272.000000 82.790 153.7499
276.000000 82.754 153.2148
280.000000 82.721 152.6920
285.000000 82.681 152.0573
290.000000 82.641 151.4330
295.000000 82.601 150.8284
300.000000 82.563 150.2342
304.000000 82.533 149.7627
307.000000 82.511 149.4161
311.000000 82.480 148.9623
315.000000 82.451 148.5114
320.000000 82.414 147.9518
325.000000 82.377 147.4087
330.000000 82.342 146.8864
335.000000 82.309 146.3774
340.000000 82.274 145.8672
345.000000 82.239 145.3484
350.000000 82.204 144.8381
355.000000 82.170 144.3625
360.000000 82.138 143.8983
365.000000 82.106 143.4324
370.000000 82.073 142.9764
375.000000 82.040 142.5303
382.000000 81.995 141.8953
387.000000 81.964 141.4506
395.000000 81.913 140.7780
400.000000 81.882 140.3641
406.000000 81.844 139.8744
412.000000 81.806 139.4044
418.000000 81.768 138.9427
425.000000 81.724 138.4139
431.000000 81.686 137.9780
437.000000 81.646 137.5566
444.000000 81.598 137.0898
450.000000 81.557 136.7200
455.000000 81.525 136.4134
462.000000 81.483 136.0092
468.000000 81.446 135.7142
475.000000 81.404 135.4303
482.000000 81.371 135.2084
487.000000 81.356 135.0823
494.000000 81.353 134.9024
500.000000 81.364 134.6843
508.000000 81.385 134.2490
515.000000 81.396 133.7543
522.000000 81.394 133.2072
530.000000 81.378 132.5909
538.000000 81.352 132.0236
545.000000 81.324 131.5783
552.000000 81.295 131.1596
560.000000 81.267 130.6960
570.000000 81.232 130.1699
580.000000 81.198 129.6887
590.000000 81.166 129.2344
600.000000 81.136 128.8074
608.000000 81.114 128.4904
615.000000 81.097 128.2262
622.000000 81.080 127.9694
630.000000 81.061 127.6871
640.000000 81.038 127.3523
650.000000 81.018 127.0254
660.000000 81.005 126.7235
670.000000 80.994 126.4478
680.000000 80.985 126.1819
690.000000 80.979 125.9297
700.000000 80.974 125.6987
710.000000 80.971 125.4883
720.000000 80.971 125.2906
730.000000 80.975 125.0978
740.000000 80.982 124.9232
750.000000 80.992 124.7642
762.000000 81.007 124.5703
775.000000 81.029 124.3777
788.000000 81.057 124.2007
800.000000 81.086 124.0491
812.000000 81.119 123.9091
825.000000 81.161 123.7648
838.000000 81.208 123.6235
850.000000 81.256 123.4968
862.000000 81.311 123.3724
875.000000 81.374 123.2282
885.000000 81.426 123.1111
900.000000 81.509 122.9298
912.000000 81.580 122.7734
925.000000 81.662 122.5921
938.000000 81.747 122.3943
950.000000 81.829 122.1945
962.000000 81.913 121.9891
975.000000 82.008 121.7480
988.000000 82.106 121.4850
1000.000000 82.197 121.2239
1015.000000 82.313 120.8759
1030.000000 82.430 120.5001
1044.000000 82.541 120.1293
1060.000000 82.668 119.6696
1075.000000 82.787 119.2070
1090.000000 82.906 118.7249
1106.000000 83.031 118.1899
1120.000000 83.140 117.7052
1138.000000 83.276 117.0607
1150.000000 83.366 116.6218
1172.000000 83.530 115.8127
1180.000000 83.590 115.5164
1206.000000 83.778 114.5374
1220.000000 83.878 114.0067
1241.000000 84.024 113.2122
1250.000000 84.086 112.8706
1265.000000 84.189 112.3009
1280.000000 84.291 111.7369
1315.000000 84.525 110.4351
1320.000000 84.559 110.2522
1340.000000 84.692 109.5321
1360.000000 84.826 108.8239
1380.000000 84.962 108.1278
1400.000000 85.098 107.4439
1430.000000 85.307 106.4326
1450.000000 85.450 105.7577
1475.000000 85.632 104.9127
1500.000000 85.818 104.0676
1525.000000 86.010 103.2127
1550.000000 86.207 102.3489
1575.000000 86.410 101.4723
1600.000000 86.620 100.5764
1625.000000 86.839 99.6406
1650.000000 87.066 98.6475
1675.000000 87.300 97.5905
1700.000000 87.540 96.4676
1725.000000 87.785 95.2661
1750.000000 88.035 93.9741
1775.000000 88.288 92.5822
1800.000000 88.544 91.0768
1825.000000 88.800 89.4464
1850.000000 89.055 87.6886
1875.000000 89.305 85.7944
1900.000000 89.548 83.7462
1925.000000 89.781 81.5428
1950.000000 90.001 79.1883
1975.000000 90.203 76.6803
2000.000000 90.384 74.0240
2030.000000 90.566 70.6655
2060.000000 90.705 67.1536
2090.000000 90.794 63.5281
2120.000000 90.829 59.8435
2140.000000 90.821 57.3855
2180.000000 90.731 52.5521
2200.000000 90.650 50.2113
2240.000000 90.423 45.7601
2270.000000 90.200 42.6712
2300.000000 89.940 39.8341
2330.000000 89.650 37.2728
2360.000000 89.338 34.9938
2400.000000 88.899 32.3781
2430.000000 88.560 30.7255
2470.000000 88.105 28.9143
2500.000000 87.768 27.8331
2540.000000 87.331 26.7321
2580.000000 86.913 25.9876
2620.000000 86.519 25.5565
2650.000000 86.241 25.4225
2690.000000 85.897 25.4631
2720.000000 85.660 25.6438
2760.000000 85.371 26.0624
2800.000000 85.116 26.6489
2850.000000 84.846 27.5698
2900.000000 84.632 28.6404
2950.000000 84.475 29.8062
3000.000000 84.374 30.9997
3040.000000 84.331 31.9247
3070.000000 84.320 32.5784
3110.000000 84.329 33.3721
3150.000000 84.362 34.0494
3200.000000 84.429 34.7123
3250.000000 84.514 35.1685
3300.000000 84.608 35.4295
3350.000000 84.702 35.5245
3400.000000 84.791 35.4977
3450.000000 84.876 35.3922
3500.000000 84.955 35.2446
3550.000000 85.033 35.0881
3600.000000 85.115 34.9363
3650.000000 85.205 34.7888
3700.000000 85.308 34.6373
3750.000000 85.429 34.4578
3820.000000 85.633 34.0965
3870.000000 85.804 33.6915
3950.000000 86.114 32.6532
4000.000000 86.322 31.7017
4060.000000 86.571 30.2068
4120.000000 86.802 28.3470
4180.000000 87.010 26.1927
4250.000000 87.225 23.3686
4310.000000 87.393 20.6460
4370.000000 87.536 17.5304
4440.000000 87.638 13.2940
4500.000000 87.633 9.1954
4550.000000 87.541 5.5753
4620.000000 87.262 0.4774
4680.000000 86.885 -3.6389
4750.000000 86.309 -7.8531
4820.000000 85.625 -11.2517
4870.000000 85.096 -13.1343
4940.000000 84.327 -15.0184
5000.000000 83.664 -15.9831
5080.000000 82.799 -16.4635
5150.000000 82.074 -16.2404
5220.000000 81.390 -15.5104
5300.000000 80.661 -14.1666
5380.000000 79.994 -12.3785
5450.000000 79.462 -10.5126
5520.000000 78.978 -8.4236
5600.000000 78.486 -5.8169
5700.000000 77.960 -2.3262
5800.000000 77.522 1.2881
5900.000000 77.155 4.9977
6000.000000 76.855 8.9235
6080.000000 76.682 12.2002
6150.000000 76.585 15.1035
6220.000000 76.539 17.9936
6300.000000 76.549 21.2352
6400.000000 76.655 25.1133
6500.000000 76.868 28.7058
6600.000000 77.188 31.8768
6700.000000 77.614 34.4238
6800.000000 78.138 36.0709
6900.000000 78.724 36.5041
7000.000000 79.301 35.3982
7100.000000 79.767 32.6112
7200.000000 80.004 28.4064
7300.000000 79.916 23.5688
7400.000000 79.469 19.3754
7500.000000 78.734 17.1901
7620.000000 77.732 18.1976
7750.000000 76.941 23.1450
7880.000000 76.834 29.7350
8000.000000 77.373 34.6058
8120.000000 78.255 36.2186
8250.000000 79.141 33.3589
8380.000000 79.552 26.9308
8500.000000 79.384 20.4086
8620.000000 78.806 15.5217
8750.000000 77.987 12.9241
8850.000000 77.392 12.4653
9000.000000 76.713 12.9078
9120.000000 76.351 13.0296
9250.000000 75.983 12.1011
9380.000000 75.428 10.6052
9500.000000 74.682 10.1145
9620.000000 73.810 11.6273
9750.000000 72.960 15.6782
9880.000000 72.433 21.2229
10000.000000 72.285 26.5645
10150.000000 72.497 32.5181
10300.000000 73.062 37.0083
10440.000000 73.844 39.3318
10600.000000 74.939 38.8945
10750.000000 75.960 34.3962
10900.000000 76.642 25.3865
11060.000000 76.631 12.4451
11200.000000 75.884 1.4773
11380.000000 74.145 -8.1713
11500.000000 72.749 -11.2731
11720.000000 70.221 -11.6517
11800.000000 69.386 -10.6154
12060.000000 67.073 -4.8318
12200.000000 66.070 -0.8015
12410.000000 64.854 5.7557
12500.000000 64.420 8.6473
12650.000000 63.790 13.6248
12800.000000 63.288 18.8405
13150.000000 62.685 30.7897
13200.000000 62.657 32.3999
13400.000000 62.683 38.4580
13600.000000 62.925 43.7930
13800.000000 63.380 48.2242
14000.000000 64.044 51.3375
14300.000000 65.389 52.9944
14500.000000 66.512 51.3731
14750.000000 67.995 44.3900
15000.000000 68.980 30.3585
15250.000000 68.814 12.9589
15500.000000 67.608 0.5418
15750.000000 66.577 -4.5948
16000.000000 66.767 -10.7969
16250.000000 67.368 -25.5293
16500.000000 67.240 -49.2299
16750.000000 65.681 -75.0623
17000.000000 62.777 -94.1927
17250.000000 59.244 -105.0640
17500.000000 55.789 -110.7197
17750.000000 52.753 -113.9010
18000.000000 50.162 -116.2042
18250.000000 47.970 -118.3999
18500.000000 46.090 -121.2330
18750.000000 44.317 -124.9432
19000.000000 42.789 -129.8247
19250.000000 41.513 -136.9480
19500.000000 40.348 -146.5377
19750.000000 39.321 -157.0933
